Fr√©quence	Canal B
(kHz)	(dBm)

0.00000000	5.81491700
0.00596046	-1.42029300
0.01192093	-16.70122000
0.01788139	-55.60675000
0.02384186	-55.53282000
0.02980232	-56.25792000
0.03576279	-51.04207000
0.04172325	-42.83511000
0.04768372	-35.48139000
0.05364418	-32.34547000
0.05960464	-33.55637000
0.06556511	-29.05055000
0.07152557	-27.99429000
0.07748604	-31.38947000
0.08344650	-28.13053000
0.08940697	-27.36708000
0.09536743	-30.25427000
0.10132790	-25.18220000
0.10728836	-25.32434000
0.11324883	-26.62883000
0.11920929	-24.75021000
0.12516975	-26.36435000
0.13113022	-23.82843000
0.13709068	-24.13094000
0.14305115	-24.79035000
0.14901161	-23.66525000
0.15497208	-24.11794000
0.16093254	-23.74131000
0.16689301	-30.35043000
0.17285347	-32.62517000
0.17881393	-31.12798000
0.18477440	-27.81360000
0.19073486	-26.33263000
0.19669533	-25.21206000
0.20265579	-25.92860000
0.20861626	-27.84907000
0.21457672	-30.20119000
0.22053719	-30.67251000
0.22649765	-34.77549000
0.23245811	-31.95125000
0.23841858	-31.28765000
0.24437904	-29.71696000
0.25033951	-27.54421000
0.25629997	-32.24171000
0.26226044	-33.88208000
0.26822090	-30.78827000
0.27418137	-28.95258000
0.28014183	-29.89384000
0.28610229	-30.15632000
0.29206276	-31.25303000
0.29802322	-33.80513000
0.30398369	-31.71743000
0.30994415	-28.67545000
0.31590462	-25.90820000
0.32186508	-27.67613000
0.32782555	-27.53859000
0.33378601	-28.84643000
0.33974648	-28.67557000
0.34570694	-30.86841000
0.35166740	-31.80672000
0.35762787	-32.04103000
0.36358833	-32.58823000
0.36954880	-34.42469000
0.37550926	-34.43742000
0.38146973	-37.28202000
0.38743019	-31.75212000
0.39339066	-26.02274000
0.39935112	-28.60804000
0.40531158	-32.14165000
0.41127205	-32.24654000
0.41723251	-31.81704000
0.42319298	-30.08394000
0.42915344	-29.83995000
0.43511391	-33.66148000
0.44107437	-31.22345000
0.44703484	-28.81140000
0.45299530	-33.00913000
0.45895576	-27.93897000
0.46491623	-23.54445000
0.47087669	-25.77860000
0.47683716	-30.54316000
0.48279762	-33.77603000
0.48875809	-32.55204000
0.49471855	-30.51924000
0.50067902	-27.43468000
0.50663948	-26.61834000
0.51259995	-26.78754000
0.51856041	-25.07036000
0.52452087	-27.43475000
0.53048134	-32.19607000
0.53644180	-29.32748000
0.54240227	-32.13173000
0.54836273	-29.47873000
0.55432320	-26.69625000
0.56028366	-30.93345000
0.56624413	-33.46850000
0.57220459	-35.74962000
0.57816505	-32.00669000
0.58412552	-32.20046000
0.59008598	-32.92421000
0.59604645	-37.49573000
0.60200691	-37.10577000
0.60796738	-37.08236000
0.61392784	-30.15391000
0.61988831	-29.37203000
0.62584877	-31.13766000
0.63180923	-35.45482000
0.63776970	-34.19213000
0.64373016	-36.54945000
0.64969063	-35.30749000
0.65565109	-33.71926000
0.66161156	-34.08276000
0.66757202	-35.36710000
0.67353249	-36.32409000
0.67949295	-36.41479000
0.68545341	-32.00522000
0.69141388	-27.71389000
0.69737434	-24.83812000
0.70333481	-25.61295000
0.70929527	-31.98249000
0.71525574	-30.05370000
0.72121620	-29.67160000
0.72717667	-32.60848000
0.73313713	-33.74855000
0.73909760	-27.62720000
0.74505806	-26.58960000
0.75101852	-30.62397000
0.75697899	-30.70619000
0.76293945	-35.61464000
0.76889992	-29.04453000
0.77486038	-29.48392000
0.78082085	-30.62294000
0.78678131	-28.85278000
0.79274178	-32.43877000
0.79870224	-37.22854000
0.80466270	-38.13538000
0.81062317	-39.41205000
0.81658363	-37.72359000
0.82254410	-33.41308000
0.82850456	-33.08663000
0.83446503	-32.40536000
0.84042549	-34.51317000
0.84638596	-35.93333000
0.85234642	-36.21405000
0.85830688	-35.27790000
0.86426735	-35.12010000
0.87022781	-35.24349000
0.87618828	-33.14830000
0.88214874	-32.67141000
0.88810921	-37.04026000
0.89406967	-35.05180000
0.90003014	-32.95960000
0.90599060	-36.30209000
0.91195107	-34.60878000
0.91791153	-33.23355000
0.92387199	-31.44609000
0.92983246	-28.68903000
0.93579292	-29.11563000
0.94175339	-33.03104000
0.94771385	-34.45977000
0.95367432	-39.42555000
0.95963478	-39.39741000
0.96559525	-39.10221000
0.97155571	-39.00938000
0.97751617	-42.65956000
0.98347664	-37.26790000
0.98943710	-35.53635000
0.99539757	-36.93370000
1.00135803	-39.76620000
1.00731850	-38.66843000
1.01327896	-36.24127000
1.01923943	-32.74866000
1.02519989	-33.25308000
1.03116035	-29.21539000
1.03712082	-30.93080000
1.04308128	-29.94379000
1.04904175	-29.28506000
1.05500221	-31.20632000
1.06096268	-32.37029000
1.06692314	-36.51736000
1.07288361	-33.64297000
1.07884407	-34.34177000
1.08480453	-29.69654000
1.09076500	-29.51205000
1.09672546	-33.99311000
1.10268593	-37.60626000
1.10864639	-35.55424000
1.11460686	-38.24687000
1.12056732	-38.42931000
1.12652779	-38.72792000
1.13248825	-38.38545000
1.13844872	-39.13062000
1.14440918	-39.56660000
1.15036964	-41.24142000
1.15633011	-39.23653000
1.16229057	-36.11967000
1.16825104	-33.00628000
1.17421150	-33.60469000
1.18017197	-34.08870000
1.18613243	-34.33944000
1.19209290	-37.73174000
1.19805336	-38.03923000
1.20401382	-39.71194000
1.20997429	-41.00448000
1.21593475	-42.64626000
1.22189522	-39.63181000
1.22785568	-36.31387000
1.23381615	-33.69933000
1.23977661	-28.42062000
1.24573708	-27.32795000
1.25169754	-27.84898000
1.25765800	-30.30022000
1.26361847	-33.93252000
1.26957893	-33.64505000
1.27553940	-35.48342000
1.28149986	-38.45488000
1.28746033	-37.01509000
1.29342079	-35.47466000
1.29938126	-35.12809000
1.30534172	-35.77000000
1.31130219	-34.94747000
1.31726265	-35.69368000
1.32322311	-35.84017000
1.32918358	-33.45635000
1.33514404	-33.87201000
1.34110451	-39.57829000
1.34706497	-38.12798000
1.35302544	-39.73260000
1.35898590	-42.12379000
1.36494637	-39.24143000
1.37090683	-42.77650000
1.37686729	-38.94477000
1.38282776	-35.87132000
1.38878822	-30.49372000
1.39474869	-30.38131000
1.40070915	-33.00949000
1.40666962	-34.50388000
1.41263008	-34.25682000
1.41859055	-35.81802000
1.42455101	-36.18163000
1.43051147	-35.50232000
1.43647194	-35.28508000
1.44243240	-35.89948000
1.44839287	-36.76315000
1.45435333	-37.41700000
1.46031380	-37.27161000
1.46627426	-35.94783000
1.47223473	-33.50937000
1.47819519	-31.51405000
1.48415565	-36.06649000
1.49011612	-33.56485000
1.49607658	-32.36334000
1.50203705	-30.67646000
1.50799751	-32.54265000
1.51395798	-31.74385000
1.51991844	-32.47101000
1.52587891	-36.99390000
1.53183937	-35.21039000
1.53779984	-35.34031000
1.54376030	-34.04901000
1.54972076	-32.05849000
1.55568123	-32.36855000
1.56164169	-31.22528000
1.56760216	-32.22577000
1.57356262	-31.92649000
1.57952309	-29.01410000
1.58548355	-28.86181000
1.59144402	-31.68701000
1.59740448	-34.20086000
1.60336494	-39.84285000
1.60932541	-38.89056000
1.61528587	-32.79008000
1.62124634	-30.02526000
1.62720680	-31.65493000
1.63316727	-34.14170000
1.63912773	-30.21177000
1.64508820	-29.53522000
1.65104866	-29.86749000
1.65700912	-30.31950000
1.66296959	-26.83796000
1.66893005	-26.62980000
1.67489052	-28.44159000
1.68085098	-32.13550000
1.68681145	-34.63359000
1.69277191	-34.40200000
1.69873238	-29.63080000
1.70469284	-29.37957000
1.71065331	-32.96778000
1.71661377	-38.81072000
1.72257423	-37.82104000
1.72853470	-36.65054000
1.73449516	-33.00511000
1.74045563	-31.03638000
1.74641609	-31.44037000
1.75237656	-32.62380000
1.75833702	-28.06970000
1.76429749	-27.40720000
1.77025795	-31.20479000
1.77621841	-35.09039000
1.78217888	-34.81440000
1.78813934	-37.24311000
1.79409981	-40.08618000
1.80006027	-37.27633000
1.80602074	-39.47348000
1.81198120	-38.08061000
1.81794167	-36.44413000
1.82390213	-36.22405000
1.82986259	-37.46124000
1.83582306	-36.00671000
1.84178352	-33.33294000
1.84774399	-30.85319000
1.85370445	-29.01821000
1.85966492	-25.41437000
1.86562538	-25.14213000
1.87158585	-25.86699000
1.87754631	-29.48068000
1.88350677	-29.81895000
1.88946724	-32.08387000
1.89542770	-33.95813000
1.90138817	-34.97889000
1.90734863	-35.23912000
1.91330910	-35.17851000
1.91926956	-39.22456000
1.92523003	-40.37873000
1.93119049	-39.71686000
1.93715096	-38.36750000
1.94311142	-37.00601000
1.94907188	-34.74125000
1.95503235	-33.23855000
1.96099281	-32.04758000
1.96695328	-35.22145000
1.97291374	-32.22761000
1.97887421	-30.46839000
1.98483467	-31.07978000
1.99079514	-31.73678000
1.99675560	-31.70723000
2.00271606	-31.87716000
2.00867653	-36.68465000
2.01463699	-36.89684000
2.02059746	-35.61051000
2.02655792	-31.55562000
2.03251839	-35.72407000
2.03847885	-38.26312000
2.04443932	-39.12711000
2.05039978	-38.96457000
2.05636024	-33.60071000
2.06232071	-32.42584000
2.06828117	-31.22663000
2.07424164	-30.61366000
2.08020210	-29.43793000
2.08616257	-31.13209000
2.09212303	-28.61524000
2.09808350	-31.86828000
2.10404396	-32.88675000
2.11000443	-34.58376000
2.11596489	-32.38586000
2.12192535	-31.10417000
2.12788582	-34.29977000
2.13384628	-36.91213000
2.13980675	-38.67632000
2.14576721	-37.50072000
2.15172768	-34.87025000
2.15768814	-29.83909000
2.16364861	-28.88226000
2.16960907	-31.34629000
2.17556953	-30.79572000
2.18153000	-29.75117000
2.18749046	-32.08328000
2.19345093	-35.86912000
2.19941139	-36.37002000
2.20537186	-32.13491000
2.21133232	-30.32008000
2.21729279	-31.00866000
2.22325325	-28.42665000
2.22921371	-28.42898000
2.23517418	-31.94607000
2.24113464	-30.08890000
2.24709511	-29.39841000
2.25305557	-34.44894000
2.25901604	-36.65550000
2.26497650	-37.71207000
2.27093697	-35.93565000
2.27689743	-34.84419000
2.28285789	-36.06193000
2.28881836	-35.73120000
2.29477882	-35.04478000
2.30073929	-30.94360000
2.30669975	-31.13467000
2.31266022	-29.65204000
2.31862068	-30.65034000
2.32458115	-27.46182000
2.33054161	-25.00493000
2.33650208	-26.51882000
2.34246254	-30.15066000
2.34842300	-29.64579000
2.35438347	-26.31255000
2.36034393	-27.71386000
2.36630440	-31.14647000
2.37226486	-36.66769000
2.37822533	-37.86073000
2.38418579	-37.96741000
2.39014626	-38.92064000
2.39610672	-37.92313000
2.40206718	-34.96745000
2.40802765	-35.24483000
2.41398811	-35.48891000
2.41994858	-35.05180000
2.42590904	-37.39296000
2.43186951	-36.49906000
2.43782997	-35.25573000
2.44379044	-32.47009000
2.44975090	-31.68328000
2.45571136	-34.90056000
2.46167183	-36.13908000
2.46763229	-35.60238000
2.47359276	-29.80470000
2.47955322	-25.70918000
2.48551369	-29.43073000
2.49147415	-24.94791000
2.49743462	-26.48332000
2.50339508	-29.84769000
2.50935555	-30.94098000
2.51531601	-31.21568000
2.52127647	-32.42371000
2.52723694	-33.17960000
2.53319740	-33.52890000
2.53915787	-34.31421000
2.54511833	-36.45142000
2.55107880	-38.33159000
2.55703926	-37.74016000
2.56299973	-38.63170000
2.56896019	-38.14650000
2.57492065	-37.89329000
2.58088112	-36.46949000
2.58684158	-36.38144000
2.59280205	-35.75975000
2.59876251	-35.45528000
2.60472298	-34.71504000
2.61068344	-36.17391000
2.61664391	-36.54680000
2.62260437	-36.02932000
2.62856483	-33.80667000
2.63452530	-32.95636000
2.64048576	-36.83558000
2.64644623	-39.28386000
2.65240669	-38.58924000
2.65836716	-40.70398000
2.66432762	-42.16423000
2.67028809	-44.44817000
2.67624855	-43.23690000
2.68220901	-42.03209000
2.68816948	-38.87433000
2.69412994	-38.77369000
2.70009041	-39.33786000
2.70605087	-37.66895000
2.71201134	-39.17311000
2.71797180	-42.59623000
2.72393227	-39.80844000
2.72989273	-35.10223000
2.73585320	-36.75298000
2.74181366	-36.06736000
2.74777412	-33.28679000
2.75373459	-34.39007000
2.75969505	-36.61409000
2.76565552	-34.78889000
2.77161598	-35.08320000
2.77757645	-32.43881000
2.78353691	-32.54016000
2.78949738	-34.73463000
2.79545784	-33.21749000
2.80141830	-32.29802000
2.80737877	-33.15640000
2.81333923	-33.87276000
2.81929970	-34.82790000
2.82526016	-37.43539000
2.83122063	-40.90594000
2.83718109	-39.71787000
2.84314156	-39.11296000
2.84910202	-40.61931000
2.85506248	-40.11180000
2.86102295	-40.43028000
2.86698341	-42.67667000
2.87294388	-44.19602000
2.87890434	-40.82679000
2.88486481	-35.95473000
2.89082527	-35.79833000
2.89678574	-34.27050000
2.90274620	-33.20903000
2.90870667	-35.05226000
2.91466713	-38.74561000
2.92062759	-38.55006000
2.92658806	-38.17176000
2.93254852	-37.53921000
2.93850899	-38.36951000
2.94446945	-38.73708000
2.95042992	-41.64083000
2.95639038	-40.38692000
2.96235085	-39.01211000
2.96831131	-36.90309000
2.97427177	-33.40688000
2.98023224	-32.16697000
2.98619270	-34.11697000
2.99215317	-38.70080000
2.99811363	-36.83350000
3.00407410	-37.04205000
3.01003456	-39.93950000
3.01599503	-39.97817000
3.02195549	-38.99546000
3.02791595	-38.77335000
3.03387642	-39.60803000
3.03983688	-41.53790000
3.04579735	-43.23109000
3.05175781	-42.23653000
3.05771828	-41.34123000
3.06367874	-40.91109000
3.06963921	-40.67295000
3.07559967	-37.75783000
3.08156013	-37.52253000
3.08752060	-40.07213000
3.09348106	-38.14987000
3.09944153	-36.65278000
3.10540199	-32.38184000
3.11136246	-33.50122000
3.11732292	-33.15907000
3.12328339	-33.58615000
3.12924385	-32.76490000
3.13520432	-32.35207000
3.14116478	-32.65018000
3.14712524	-36.52351000
3.15308571	-37.53368000
3.15904617	-41.22457000
3.16500664	-35.28485000
3.17096710	-33.21505000
3.17692757	-29.76422000
3.18288803	-29.77967000
3.18884850	-32.28084000
3.19480896	-36.49543000
3.20076942	-41.84925000
3.20672989	-41.36046000
3.21269035	-41.79336000
3.21865082	-42.62374000
3.22461128	-42.57949000
3.23057175	-40.41493000
3.23653221	-39.84000000
3.24249268	-37.17643000
3.24845314	-36.65132000
3.25441360	-36.44395000
3.26037407	-35.53362000
3.26633453	-31.97490000
3.27229500	-32.65126000
3.27825546	-36.02614000
3.28421593	-39.92152000
3.29017639	-37.04234000
3.29613686	-34.01244000
3.30209732	-33.94976000
3.30805779	-33.39946000
3.31401825	-36.27174000
3.31997871	-33.45937000
3.32593918	-33.08091000
3.33189964	-29.99877000
3.33786011	-31.50936000
3.34382057	-33.92288000
3.34978104	-37.52821000
3.35574150	-37.57676000
3.36170197	-36.31532000
3.36766243	-38.20930000
3.37362289	-37.05779000
3.37958336	-37.52408000
3.38554382	-36.90767000
3.39150429	-38.40609000
3.39746475	-39.04096000
3.40342522	-38.48455000
3.40938568	-37.55415000
3.41534615	-37.84666000
3.42130661	-36.13800000
3.42726707	-38.20625000
3.43322754	-36.28792000
3.43918800	-36.40983000
3.44514847	-39.17277000
3.45110893	-38.97959000
3.45706940	-40.02104000
3.46302986	-38.73989000
3.46899033	-38.33279000
3.47495079	-40.02056000
3.48091125	-39.20135000
3.48687172	-36.91319000
3.49283218	-34.97630000
3.49879265	-36.84436000
3.50475311	-40.21212000
3.51071358	-38.12107000
3.51667404	-39.02140000
3.52263451	-37.88738000
3.52859497	-38.38795000
3.53455544	-39.61039000
3.54051590	-39.52995000
3.54647636	-38.24034000
3.55243683	-38.68666000
3.55839729	-38.42352000
3.56435776	-36.90821000
3.57031822	-36.98970000
3.57627869	-37.64668000
3.58223915	-34.52320000
3.58819962	-33.79131000
3.59416008	-35.89493000
3.60012054	-34.96244000
3.60608101	-36.26630000
3.61204147	-33.90275000
3.61800194	-33.48314000
3.62396240	-35.72765000
3.62992287	-37.15784000
3.63588333	-37.47033000
3.64184380	-39.05217000
3.64780426	-39.17265000
3.65376472	-39.06609000
3.65972519	-38.91839000
3.66568565	-37.63248000
3.67164612	-34.82809000
3.67760658	-37.34673000
3.68356705	-41.50066000
3.68952751	-39.20350000
3.69548798	-37.11919000
3.70144844	-37.52420000
3.70740891	-36.57269000
3.71336937	-35.54515000
3.71932983	-33.17341000
3.72529030	-31.92515000
3.73125076	-30.28849000
3.73721123	-33.84393000
3.74317169	-35.00596000
3.74913216	-36.44138000
3.75509262	-36.29955000
3.76105309	-37.74992000
3.76701355	-36.07681000
3.77297401	-34.37812000
3.77893448	-33.38446000
3.78489494	-34.23271000
3.79085541	-37.24417000
3.79681587	-41.66324000
3.80277634	-42.49522000
3.80873680	-34.81293000
3.81469727	-31.73817000
3.82065773	-36.15569000
3.82661819	-39.35975000
3.83257866	-39.63695000
3.83853912	-39.58741000
3.84449959	-39.12501000
3.85046005	-40.17853000
3.85642052	-39.12868000
3.86238098	-39.00060000
3.86834145	-36.82460000
3.87430191	-35.86495000
3.88026237	-35.07648000
3.88622284	-36.68095000
3.89218330	-37.08163000
3.89814377	-38.02319000
3.90410423	-36.90411000
3.91006470	-35.77526000
3.91602516	-35.01980000
3.92198563	-35.65823000
3.92794609	-38.40345000
3.93390656	-39.57867000
3.93986702	-37.05522000
3.94582748	-37.70712000
3.95178795	-35.46249000
3.95774841	-36.73683000
3.96370888	-34.56062000
3.96966934	-34.94065000
3.97562981	-35.88970000
3.98159027	-39.03534000
3.98755074	-36.91097000
3.99351120	-37.79692000
3.99947166	-36.42827000
4.00543213	-36.43089000
4.01139259	-35.85449000
4.01735306	-35.36463000
4.02331352	-36.25633000
4.02927399	-36.84264000
4.03523445	-34.85833000
4.04119492	-34.69105000
4.04715538	-36.44830000
4.05311584	-36.13562000
4.05907631	-36.06506000
4.06503677	-38.23738000
4.07099724	-37.75237000
4.07695770	-38.91032000
4.08291817	-37.17238000
4.08887863	-35.11494000
4.09483910	-35.91168000
4.10079956	-36.92480000
4.10676003	-36.09091000
4.11272049	-37.31134000
4.11868095	-34.57327000
4.12464142	-31.22949000
4.13060188	-29.55547000
4.13656235	-31.40559000
4.14252281	-39.03444000
4.14848328	-38.67168000
4.15444374	-37.27301000
4.16040421	-34.12910000
4.16636467	-34.46409000
4.17232513	-36.87939000
4.17828560	-37.82018000
4.18424606	-37.83052000
4.19020653	-37.51770000
4.19616699	-36.28587000
4.20212746	-36.25880000
4.20808792	-37.95373000
4.21404839	-38.36146000
4.22000885	-37.97560000
4.22596931	-38.03164000
4.23192978	-37.91935000
4.23789024	-38.19590000
4.24385071	-40.01396000
4.24981117	-41.64114000
4.25577164	-41.09806000
4.26173210	-40.62426000
4.26769257	-41.42203000
4.27365303	-37.11976000
4.27961349	-37.25566000
4.28557396	-41.07308000
4.29153442	-40.19600000
4.29749489	-39.61787000
4.30345535	-39.61971000
4.30941582	-41.82237000
4.31537628	-41.86567000
4.32133675	-39.39939000
4.32729721	-38.58387000
4.33325768	-38.25898000
4.33921814	-39.28400000
4.34517860	-42.27246000
4.35113907	-40.60475000
4.35709953	-39.24900000
4.36306000	-37.57471000
4.36902046	-38.67841000
4.37498093	-38.03316000
4.38094139	-39.35774000
4.38690186	-41.05540000
4.39286232	-43.26765000
4.39882278	-43.92261000
4.40478325	-41.57448000
4.41074371	-39.15607000
4.41670418	-37.11416000
4.42266464	-40.12802000
4.42862511	-41.29459000
4.43458557	-40.10154000
4.44054604	-39.92186000
4.44650650	-36.40012000
4.45246696	-33.61438000
4.45842743	-33.47901000
4.46438789	-37.64748000
4.47034836	-40.84199000
4.47630882	-43.81226000
4.48226929	-41.46083000
4.48822975	-40.86247000
4.49419022	-43.47417000
4.50015068	-42.84934000
4.50611115	-39.82538000
4.51207161	-37.05702000
4.51803207	-37.36196000
4.52399254	-39.76621000
4.52995300	-37.17450000
4.53591347	-35.96890000
4.54187393	-36.91843000
4.54783440	-38.90368000
4.55379486	-38.20100000
4.55975533	-40.18255000
4.56571579	-38.76897000
4.57167625	-39.10606000
4.57763672	-40.94503000
4.58359718	-44.75412000
4.58955765	-44.07144000
4.59551811	-38.05962000
4.60147858	-37.97314000
4.60743904	-40.70772000
4.61339951	-40.54356000
4.61935997	-39.26793000
4.62532043	-40.34999000
4.63128090	-36.75656000
4.63724136	-33.64877000
4.64320183	-36.08622000
4.64916229	-37.13393000
4.65512276	-39.24387000
4.66108322	-37.43845000
4.66704369	-36.50343000
4.67300415	-37.04250000
4.67896461	-38.91068000
4.68492508	-37.04094000
4.69088554	-37.95968000
4.69684601	-39.16245000
4.70280647	-39.98970000
4.70876694	-39.57914000
4.71472740	-40.86255000
4.72068787	-41.03023000
4.72664833	-39.60793000
4.73260880	-39.31420000
4.73856926	-41.62025000
4.74452972	-44.59471000
4.75049019	-42.67710000
4.75645065	-42.70467000
4.76241112	-44.30873000
4.76837158	-44.49188000
4.77433205	-43.79169000
4.78029251	-41.13267000
4.78625298	-40.00848000
4.79221344	-39.88184000
4.79817390	-37.81612000
4.80413437	-40.52578000
4.81009483	-41.80771000
4.81605530	-42.38326000
4.82201576	-41.32480000
4.82797623	-41.59234000
4.83393669	-41.25159000
4.83989716	-40.06797000
4.84585762	-42.22061000
4.85181808	-41.14687000
4.85777855	-38.40340000
4.86373901	-38.72495000
4.86969948	-40.57320000
4.87565994	-43.79470000
4.88162041	-40.59899000
4.88758087	-37.53438000
4.89354134	-37.52982000
4.89950180	-40.28307000
4.90546227	-41.46836000
4.91142273	-43.10821000
4.91738319	-44.84852000
4.92334366	-42.17497000
4.92930412	-40.19379000
4.93526459	-38.28767000
4.94122505	-39.03988000
4.94718552	-40.04086000
4.95314598	-38.08946000
4.95910645	-35.91496000
4.96506691	-38.01308000
4.97102737	-35.80995000
4.97698784	-35.70740000
4.98294830	-36.63587000
4.98890877	-35.80979000
4.99486923	-35.93925000
5.00082970	-35.64172000
5.00679016	-39.60404000
5.01275063	-38.55499000
5.01871109	-38.59159000
5.02467155	-40.71006000
5.03063202	-40.53569000
5.03659248	-41.19100000
5.04255295	-41.51438000
5.04851341	-42.76806000
5.05447388	-41.37294000
5.06043434	-40.54634000
5.06639481	-41.26482000
5.07235527	-42.72518000
5.07831573	-41.48444000
5.08427620	-40.82365000
5.09023666	-39.54196000
5.09619713	-38.37239000
5.10215759	-38.35604000
5.10811806	-40.44356000
5.11407852	-38.19712000
5.12003899	-35.72833000
5.12599945	-35.11209000
5.13195992	-36.97399000
5.13792038	-38.09848000
5.14388084	-38.59893000
5.14984131	-37.62168000
5.15580177	-37.00786000
5.16176224	-37.02851000
5.16772270	-38.86609000
5.17368317	-39.95287000
5.17964363	-42.92393000
5.18560410	-43.26653000
5.19156456	-41.95312000
5.19752502	-39.35395000
5.20348549	-39.97795000
5.20944595	-39.97153000
5.21540642	-42.83614000
5.22136688	-41.98647000
5.22732735	-40.04991000
5.23328781	-39.62698000
5.23924828	-40.19150000
5.24520874	-41.75377000
5.25116920	-40.42434000
5.25712967	-39.86984000
5.26309013	-41.15843000
5.26905060	-41.35717000
5.27501106	-41.81860000
5.28097153	-41.61341000
5.28693199	-41.00597000
5.29289246	-42.04989000
5.29885292	-41.55597000
5.30481339	-40.04910000
5.31077385	-39.69309000
5.31673431	-41.28504000
5.32269478	-44.64342000
5.32865524	-42.84630000
5.33461571	-43.00372000
5.34057617	-44.99029000
5.34653664	-45.52496000
5.35249710	-46.75187000
5.35845757	-44.07085000
5.36441803	-45.20514000
5.37037849	-46.70117000
5.37633896	-47.75055000
5.38229942	-45.92348000
5.38825989	-45.31258000
5.39422035	-43.11205000
5.40018082	-43.44412000
5.40614128	-43.65694000
5.41210175	-43.62909000
5.41806221	-45.07665000
5.42402267	-44.43011000
5.42998314	-44.28719000
5.43594360	-41.52449000
5.44190407	-39.56219000
5.44786453	-38.88708000
5.45382500	-40.50595000
5.45978546	-40.82180000
5.46574593	-39.82725000
5.47170639	-37.79183000
5.47766685	-37.53611000
5.48362732	-36.25592000
5.48958778	-35.64236000
5.49554825	-32.81165000
5.50150871	-34.09581000
5.50746918	-38.89644000
5.51342964	-43.84444000
5.51939011	-44.13903000
5.52535057	-41.75739000
5.53131104	-41.03822000
5.53727150	-41.76067000
5.54323196	-43.72323000
5.54919243	-43.45894000
5.55515289	-44.53846000
5.56111336	-46.01455000
5.56707382	-46.24523000
5.57303429	-43.97747000
5.57899475	-42.97419000
5.58495522	-43.61578000
5.59091568	-43.07581000
5.59687614	-42.66910000
5.60283661	-41.67287000
5.60879707	-45.10499000
5.61475754	-44.75597000
5.62071800	-43.52877000
5.62667847	-42.14043000
5.63263893	-43.55445000
5.63859940	-43.74100000
5.64455986	-43.44388000
5.65052032	-45.78957000
5.65648079	-48.06241000
5.66244125	-47.71317000
5.66840172	-45.87120000
5.67436218	-40.92196000
5.68032265	-40.99020000
5.68628311	-45.18683000
5.69224358	-49.04490000
5.69820404	-49.77792000
5.70416451	-49.15057000
5.71012497	-46.36541000
5.71608543	-46.15567000
5.72204590	-45.73325000
5.72800636	-44.74477000
5.73396683	-45.71244000
5.73992729	-45.36107000
5.74588776	-42.80130000
5.75184822	-42.64065000
5.75780869	-45.90363000
5.76376915	-47.48739000
5.76972961	-47.04584000
5.77569008	-46.97109000
5.78165054	-49.71576000
5.78761101	-49.53083000
5.79357147	-45.49284000
5.79953194	-45.28326000
5.80549240	-48.45325000
5.81145287	-47.74503000
5.81741333	-46.60682000
5.82337379	-44.41801000
5.82933426	-50.17745000
5.83529472	-49.66114000
5.84125519	-50.04444000
5.84721565	-50.05305000
5.85317612	-46.62915000
5.85913658	-44.24170000
5.86509705	-42.90775000
5.87105751	-46.53360000
5.87701797	-50.95418000
5.88297844	-48.32714000
5.88893890	-50.51368000
5.89489937	-49.63039000
5.90085983	-45.85172000
5.90682030	-45.21975000
5.91278076	-45.14725000
5.91874123	-45.03699000
5.92470169	-46.33628000
5.93066216	-41.97014000
5.93662262	-41.31429000
5.94258308	-42.32861000
5.94854355	-41.25710000
5.95450401	-41.40777000
5.96046448	-43.06709000
5.96642494	-40.56988000
5.97238541	-37.76413000
5.97834587	-37.98910000
5.98430634	-40.19715000
5.99026680	-44.59315000
5.99622726	-43.14738000
6.00218773	-43.16948000
6.00814819	-44.12277000
6.01410866	-47.25978000
6.02006912	-46.40371000
6.02602959	-47.61826000
6.03199005	-48.87297000
6.03795052	-45.08033000
6.04391098	-42.06606000
6.04987144	-41.19490000
6.05583191	-40.79842000
6.06179237	-41.66722000
6.06775284	-39.72333000
6.07371330	-38.43082000
6.07967377	-40.93441000
6.08563423	-49.24400000
6.09159470	-50.82797000
6.09755516	-51.32640000
6.10351563	-50.93035000
6.10947609	-52.08352000
6.11543655	-51.93184000
6.12139702	-53.69215000
6.12735748	-55.23007000
6.13331795	-53.68302000
6.13927841	-52.10434000
6.14523888	-51.14005000
6.15119934	-49.85379000
6.15715981	-47.43534000
6.16312027	-48.82204000
6.16908073	-49.12857000
6.17504120	-49.52162000
6.18100166	-51.26214000
6.18696213	-51.04177000
6.19292259	-49.20116000
6.19888306	-48.00646000
6.20484352	-50.85503000
6.21080399	-52.83804000
6.21676445	-48.19920000
6.22272491	-49.18274000
6.22868538	-46.25798000
6.23464584	-46.75094000
6.24060631	-44.91253000
6.24656677	-46.34036000
6.25252724	-47.29881000
6.25848770	-49.07249000
6.26444817	-47.76703000
6.27040863	-48.64284000
6.27636909	-51.32948000
6.28232956	-51.26484000
6.28829002	-47.22113000
6.29425049	-45.62033000
6.30021095	-47.41497000
6.30617142	-46.43124000
6.31213188	-44.64050000
6.31809235	-42.78308000
6.32405281	-43.65140000
6.33001328	-46.40950000
6.33597374	-49.86416000
6.34193420	-51.30283000
6.34789467	-51.23792000
6.35385513	-51.55579000
6.35981560	-53.67952000
6.36577606	-54.54376000
6.37173653	-55.68482000
6.37769699	-56.23447000
6.38365746	-54.10096000
6.38961792	-52.87735000
6.39557838	-53.91159000
6.40153885	-51.34689000
6.40749931	-52.17503000
6.41345978	-52.09914000
6.41942024	-48.84574000
6.42538071	-48.09195000
6.43134117	-49.46481000
6.43730164	-44.76711000
6.44326210	-46.38455000
6.44922256	-47.46636000
6.45518303	-47.85597000
6.46114349	-49.66683000
6.46710396	-50.32144000
6.47306442	-48.70652000
6.47902489	-49.55371000
6.48498535	-52.12132000
6.49094582	-50.00787000
6.49690628	-48.51672000
6.50286674	-45.86577000
6.50882721	-45.92113000
6.51478767	-46.24737000
6.52074814	-48.70029000
6.52670860	-48.64271000
6.53266907	-46.35036000
6.53862953	-45.34883000
6.54459000	-48.24479000
6.55055046	-49.73001000
6.55651093	-48.88935000
6.56247139	-48.44873000
6.56843185	-51.55086000
6.57439232	-53.94410000
6.58035278	-51.52737000
6.58631325	-50.99946000
6.59227371	-48.56532000
6.59823418	-50.28031000
6.60419464	-47.73292000
6.61015511	-48.46460000
6.61611557	-51.35884000
6.62207603	-51.44697000
6.62803650	-47.94470000
6.63399696	-45.90263000
6.63995743	-45.40826000
6.64591789	-46.51217000
6.65187836	-45.84230000
6.65783882	-45.19453000
6.66379929	-47.73471000
6.66975975	-46.46881000
6.67572021	-46.22700000
6.68168068	-47.00875000
6.68764114	-47.32022000
6.69360161	-48.99483000
6.69956207	-52.48653000
6.70552254	-52.40791000
6.71148300	-52.76398000
6.71744347	-51.28832000
6.72340393	-48.01100000
6.72936440	-48.91746000
6.73532486	-47.42655000
6.74128532	-49.06166000
6.74724579	-49.11854000
6.75320625	-51.42910000
6.75916672	-49.78690000
6.76512718	-49.26699000
6.77108765	-51.35287000
6.77704811	-49.35541000
6.78300858	-47.17394000
6.78896904	-47.67725000
6.79492950	-46.91325000
6.80088997	-49.83885000
6.80685043	-48.20364000
6.81281090	-46.88291000
6.81877136	-46.45135000
6.82473183	-49.22163000
6.83069229	-49.30965000
6.83665276	-49.42416000
6.84261322	-49.85069000
6.84857368	-51.53506000
6.85453415	-53.26540000
6.86049461	-53.44295000
6.86645508	-55.11281000
6.87241554	-52.23864000
6.87837601	-52.55205000
6.88433647	-55.21362000
6.89029694	-52.74759000
6.89625740	-52.65734000
6.90221786	-52.12062000
6.90817833	-50.44209000
6.91413879	-48.70655000
6.92009926	-51.32789000
6.92605972	-46.13731000
6.93202019	-47.28962000
6.93798065	-49.05071000
6.94394112	-47.72076000
6.94990158	-49.16404000
6.95586205	-49.25091000
6.96182251	-48.75614000
6.96778297	-46.49688000
6.97374344	-42.74605000
6.97970390	-42.71298000
6.98566437	-39.64645000
6.99162483	-39.75913000
6.99758530	-41.82825000
7.00354576	-45.39127000
7.00950623	-49.58347000
7.01546669	-46.08123000
7.02142715	-43.41224000
7.02738762	-40.82551000
7.03334808	-41.48662000
7.03930855	-47.35059000
7.04526901	-47.00408000
7.05122948	-49.59909000
7.05718994	-49.95106000
7.06315041	-49.72763000
7.06911087	-48.57804000
7.07507133	-47.55283000
7.08103180	-51.50952000
7.08699226	-48.57731000
7.09295273	-53.84588000
7.09891319	-50.85644000
7.10487366	-52.26532000
7.11083412	-51.44672000
7.11679459	-51.95086000
7.12275505	-50.16754000
7.12871552	-47.42111000
7.13467598	-48.81142000
7.14063644	-50.52908000
7.14659691	-51.15359000
7.15255737	-52.75390000
7.15851784	-52.11652000
7.16447830	-54.86649000
7.17043877	-52.15380000
7.17639923	-50.86200000
7.18235970	-51.71475000
7.18832016	-50.06977000
7.19428062	-48.16877000
7.20024109	-46.32000000
7.20620155	-45.51683000
7.21216202	-49.39056000
7.21812248	-43.15845000
7.22408295	-44.06824000
7.23004341	-44.34258000
7.23600388	-42.46300000
7.24196434	-43.81845000
7.24792480	-44.64159000
7.25388527	-45.87329000
7.25984573	-48.37298000
7.26580620	-50.17437000
7.27176666	-48.86886000
7.27772713	-47.63470000
7.28368759	-49.58241000
7.28964806	-47.92437000
7.29560852	-50.73384000
7.30156898	-47.04207000
7.30752945	-48.94662000
7.31348991	-47.38142000
7.31945038	-44.97188000
7.32541084	-44.91442000
7.33137131	-46.66512000
7.33733177	-45.45110000
7.34329224	-43.75294000
7.34925270	-45.53913000
7.35521317	-48.74520000
7.36117363	-51.08964000
7.36713409	-48.38998000
7.37309456	-47.23805000
7.37905502	-49.26212000
7.38501549	-53.22607000
7.39097595	-53.97909000
7.39693642	-58.77565000
7.40289688	-58.27457000
7.40885735	-55.30807000
7.41481781	-52.11989000
7.42077827	-50.82120000
7.42673874	-49.78949000
7.43269920	-52.22170000
7.43865967	-53.31871000
7.44462013	-52.82212000
7.45058060	-52.65102000
7.45654106	-55.62418000
7.46250153	-55.32618000
7.46846199	-54.48267000
7.47442245	-49.59519000
7.48038292	-49.86992000
7.48634338	-49.56203000
7.49230385	-50.17800000
7.49826431	-52.12561000
7.50422478	-51.43070000
7.51018524	-52.99738000
7.51614571	-52.43622000
7.52210617	-54.63636000
7.52806664	-57.73657000
7.53402710	-53.06156000
7.53998756	-54.32661000
7.54594803	-56.40001000
7.55190849	-55.04650000
7.55786896	-54.41370000
7.56382942	-56.17670000
7.56978989	-59.46579000
7.57575035	-57.78532000
7.58171082	-58.47826000
7.58767128	-55.45773000
7.59363174	-53.88770000
7.59959221	-56.34689000
7.60555267	-52.33058000
7.61151314	-48.37160000
7.61747360	-50.15894000
7.62343407	-54.24303000
7.62939453	-55.45665000
7.63535500	-52.75904000
7.64131546	-52.25933000
7.64727592	-50.82367000
7.65323639	-51.81875000
7.65919685	-47.95206000
7.66515732	-48.75369000
7.67111778	-50.67363000
7.67707825	-50.30451000
7.68303871	-52.34512000
7.68899918	-52.66541000
7.69495964	-54.08723000
7.70092010	-48.23815000
7.70688057	-48.72959000
7.71284103	-50.66412000
7.71880150	-48.55827000
7.72476196	-48.14721000
7.73072243	-50.67156000
7.73668289	-51.02848000
7.74264336	-49.97392000
7.74860382	-52.29219000
7.75456429	-54.85135000
7.76052475	-55.14939000
7.76648521	-54.66381000
7.77244568	-54.92245000
7.77840614	-56.24423000
7.78436661	-55.09208000
7.79032707	-55.05793000
7.79628754	-54.22269000
7.80224800	-56.49416000
7.80820847	-59.41345000
7.81416893	-56.43305000
7.82012939	-57.15582000
7.82608986	-58.02200000
7.83205032	-56.06159000
7.83801079	-56.86532000
7.84397125	-54.90535000
7.84993172	-55.35130000
7.85589218	-55.72228000
7.86185265	-55.06479000
7.86781311	-55.11637000
7.87377357	-57.21410000
7.87973404	-57.13089000
7.88569450	-54.22256000
7.89165497	-52.45386000
7.89761543	-54.72372000
7.90357590	-54.28409000
7.90953636	-52.62822000
7.91549683	-50.00145000
7.92145729	-50.36163000
7.92741776	-52.29906000
7.93337822	-55.76772000
7.93933868	-55.58091000
7.94529915	-55.05933000
7.95125961	-53.81124000
7.95722008	-53.84363000
7.96318054	-50.14888000
7.96914101	-48.72757000
7.97510147	-52.14542000
7.98106194	-54.46787000
7.98702240	-53.88290000
7.99298286	-50.92525000
7.99894333	-53.22595000
8.00490379	-54.99416000
8.01086426	-56.09332000
8.01682472	-58.10069000
8.02278519	-54.54243000
8.02874565	-50.96603000
8.03470612	-48.86470000
8.04066658	-50.09983000
8.04662704	-51.18604000
8.05258751	-50.72579000
8.05854797	-50.91913000
8.06450844	-52.02082000
8.07046890	-45.83132000
8.07642937	-46.15777000
8.08238983	-48.65705000
8.08835030	-50.12058000
8.09431076	-49.36829000
8.10027122	-50.29834000
8.10623169	-49.53544000
8.11219215	-48.62211000
8.11815262	-47.41486000
8.12411308	-48.45638000
8.13007355	-48.79107000
8.13603401	-46.37201000
8.14199448	-44.91838000
8.14795494	-49.95501000
8.15391541	-49.81549000
8.15987587	-53.69156000
8.16583633	-55.84418000
8.17179680	-57.00573000
8.17775726	-51.85210000
8.18371773	-55.20409000
8.18967819	-57.87955000
8.19563866	-56.82557000
8.20159912	-55.35582000
8.20755959	-55.37662000
8.21352005	-56.80602000
8.21948051	-56.93737000
8.22544098	-56.26881000
8.23140144	-54.86753000
8.23736191	-56.79214000
8.24332237	-55.91055000
8.24928284	-57.28597000
8.25524330	-58.17112000
8.26120377	-55.68245000
8.26716423	-55.80803000
8.27312469	-53.81411000
8.27908516	-52.75900000
8.28504562	-52.27789000
8.29100609	-53.46531000
8.29696655	-51.79313000
8.30292702	-52.07343000
8.30888748	-50.20020000
8.31484795	-50.07038000
8.32080841	-49.50962000
8.32676888	-48.77759000
8.33272934	-47.47168000
8.33868980	-49.71177000
8.34465027	-50.46185000
8.35061073	-51.13544000
8.35657120	-48.99887000
8.36253166	-48.91618000
8.36849213	-49.44119000
8.37445259	-50.18011000
8.38041306	-51.85479000
8.38637352	-51.09447000
8.39233398	-50.25628000
8.39829445	-51.42763000
8.40425491	-51.66415000
8.41021538	-53.35175000
8.41617584	-53.33170000
8.42213631	-52.55351000
8.42809677	-54.42812000
8.43405724	-56.27222000
8.44001770	-56.14443000
8.44597816	-56.61221000
8.45193863	-54.71186000
8.45789909	-52.19756000
8.46385956	-49.29126000
8.46982002	-46.77000000
8.47578049	-45.92830000
8.48174095	-46.29842000
8.48770142	-44.62611000
8.49366188	-44.88461000
8.49962234	-46.76057000
8.50558281	-49.29642000
8.51154327	-47.27886000
8.51750374	-49.98512000
8.52346420	-51.82164000
8.52942467	-53.18990000
8.53538513	-48.85191000
8.54134560	-49.70618000
8.54730606	-47.39193000
8.55326653	-46.39149000
8.55922699	-48.43383000
8.56518745	-50.38887000
8.57114792	-46.22516000
8.57710838	-45.98372000
8.58306885	-48.98619000
8.58902931	-49.17944000
8.59498978	-48.74178000
8.60095024	-50.17369000
8.60691071	-52.79747000
8.61287117	-50.84208000
8.61883163	-46.34311000
8.62479210	-47.40511000
8.63075256	-53.39260000
8.63671303	-50.11873000
8.64267349	-49.52294000
8.64863396	-45.98891000
8.65459442	-46.40965000
8.66055489	-50.34989000
8.66651535	-52.40660000
8.67247581	-51.71156000
8.67843628	-52.91002000
8.68439674	-54.43413000
8.69035721	-54.40643000
8.69631767	-51.31168000
8.70227814	-50.90101000
8.70823860	-51.48970000
8.71419907	-52.19492000
8.72015953	-53.47899000
8.72612000	-52.00504000
8.73208046	-51.97048000
8.73804092	-53.33100000
8.74400139	-54.52328000
8.74996185	-54.07518000
8.75592232	-54.59872000
8.76188278	-51.19364000
8.76784325	-50.82166000
8.77380371	-54.34620000
8.77976418	-52.84171000
8.78572464	-51.36965000
8.79168510	-52.71276000
8.79764557	-52.24050000
8.80360603	-53.49052000
8.80956650	-52.61189000
8.81552696	-51.35276000
8.82148743	-50.72946000
8.82744789	-51.26074000
8.83340836	-54.34946000
8.83936882	-54.07311000
8.84532928	-53.72067000
8.85128975	-51.01395000
8.85725021	-51.41256000
8.86321068	-50.93651000
8.86917114	-51.16743000
8.87513161	-49.38669000
8.88109207	-50.85503000
8.88705254	-50.27244000
8.89301300	-49.47573000
8.89897346	-48.56838000
8.90493393	-45.44446000
8.91089439	-45.47638000
8.91685486	-46.76692000
8.92281532	-47.49431000
8.92877579	-48.75691000
8.93473625	-50.58458000
8.94069672	-51.31099000
8.94665718	-51.77401000
8.95261765	-56.52409000
8.95857811	-56.20216000
8.96453857	-56.25393000
8.97049904	-54.91827000
8.97645950	-56.03746000
8.98241997	-49.38744000
8.98838043	-47.58642000
8.99434090	-49.26681000
9.00030136	-49.37943000
9.00626183	-52.85572000
9.01222229	-55.03780000
9.01818275	-55.21917000
9.02414322	-54.69614000
9.03010368	-53.38479000
9.03606415	-52.09435000
9.04202461	-52.42153000
9.04798508	-52.18574000
9.05394554	-54.10501000
9.05990601	-52.59245000
9.06586647	-48.71740000
9.07182693	-52.68382000
9.07778740	-54.26882000
9.08374786	-55.68348000
9.08970833	-57.00983000
9.09566879	-56.47417000
9.10162926	-51.84149000
9.10758972	-53.53580000
9.11355019	-53.91335000
9.11951065	-54.67707000
9.12547112	-49.97652000
9.13143158	-51.81433000
9.13739204	-54.36351000
9.14335251	-54.02359000
9.14931297	-54.44019000
9.15527344	-49.40035000
9.16123390	-47.64557000
9.16719437	-50.67303000
9.17315483	-54.48856000
9.17911530	-53.16627000
9.18507576	-51.16016000
9.19103622	-52.55966000
9.19699669	-50.07297000
9.20295715	-50.12169000
9.20891762	-53.39691000
9.21487808	-53.88445000
9.22083855	-50.93816000
9.22679901	-53.12341000
9.23275948	-52.94147000
9.23871994	-51.16438000
9.24468040	-54.26289000
9.25064087	-52.67859000
9.25660133	-50.43686000
9.26256180	-50.81279000
9.26852226	-52.68109000
9.27448273	-54.67511000
9.28044319	-49.14672000
9.28640366	-49.35180000
9.29236412	-52.24747000
9.29832458	-51.98742000
9.30428505	-50.23254000
9.31024551	-50.91797000
9.31620598	-50.32214000
9.32216644	-51.06102000
9.32812691	-53.54321000
9.33408737	-57.12970000
9.34004784	-54.93946000
9.34600830	-52.44713000
9.35196877	-51.49393000
9.35792923	-53.61103000
9.36388969	-52.74710000
9.36985016	-54.32218000
9.37581062	-55.79979000
9.38177109	-53.88535000
9.38773155	-51.90325000
9.39369202	-54.26058000
9.39965248	-55.41858000
9.40561295	-55.54681000
9.41157341	-53.06611000
9.41753387	-50.11663000
9.42349434	-49.38098000
9.42945480	-48.94905000
9.43541527	-49.43450000
9.44137573	-50.04532000
9.44733620	-50.84594000
9.45329666	-51.18226000
9.45925713	-53.46663000
9.46521759	-55.10382000
9.47117805	-53.25178000
9.47713852	-51.63819000
9.48309898	-48.99443000
9.48905945	-47.10166000
9.49501991	-46.74190000
9.50098038	-48.95656000
9.50694084	-48.04499000
9.51290131	-50.36826000
9.51886177	-49.48966000
9.52482224	-51.49865000
9.53078270	-50.97977000
9.53674316	-45.16079000
9.54270363	-42.96247000
9.54866409	-43.98716000
9.55462456	-43.68140000
9.56058502	-45.87015000
9.56654549	-44.42551000
9.57250595	-44.25342000
9.57846642	-46.45068000
9.58442688	-47.71588000
9.59038734	-48.62577000
9.59634781	-48.23543000
9.60230827	-50.15331000
9.60826874	-51.89717000
9.61422920	-50.66541000
9.62018967	-53.69053000
9.62615013	-55.14061000
9.63211060	-54.08574000
9.63807106	-50.88783000
9.64403152	-49.83871000
9.64999199	-50.75523000
9.65595245	-55.03587000
9.66191292	-55.20428000
9.66787338	-53.15808000
9.67383385	-51.32550000
9.67979431	-49.36348000
9.68575478	-48.47607000
9.69171524	-51.48003000
9.69767570	-53.40480000
9.70363617	-51.98240000
9.70959663	-50.88760000
9.71555710	-48.94637000
9.72151756	-49.73388000
9.72747803	-51.02901000
9.73343849	-51.44289000
9.73939896	-49.57393000
9.74535942	-49.52560000
9.75131989	-52.23141000
9.75728035	-51.02306000
9.76324081	-52.43522000
9.76920128	-51.50131000
9.77516174	-51.56904000
9.78112221	-48.98531000
9.78708267	-49.12453000
9.79304314	-49.12954000
9.79900360	-50.27749000
9.80496407	-53.82305000
9.81092453	-52.00868000
9.81688499	-50.83249000
9.82284546	-54.15139000
9.82880592	-54.68924000
9.83476639	-53.41404000
9.84072685	-53.36594000
9.84668732	-54.13235000
9.85264778	-59.09821000
9.85860825	-57.84451000
9.86456871	-54.09568000
9.87052917	-53.74090000
9.87648964	-53.94661000
9.88245010	-55.55959000
9.88841057	-54.97620000
9.89437103	-55.54779000
9.90033150	-56.03868000
9.90629196	-53.50971000
9.91225243	-53.63425000
9.91821289	-53.50649000
9.92417336	-53.10006000
9.93013382	-52.82360000
9.93609428	-52.50327000
9.94205475	-51.96710000
9.94801521	-50.56207000
9.95397568	-49.13492000
9.95993614	-51.56102000
9.96589661	-54.21371000
9.97185707	-51.82098000
9.97781754	-52.94248000
9.98377800	-50.66392000
9.98973846	-49.23872000
9.99569893	-50.71505000
10.00165939	-50.54733000
10.00761986	-48.22297000
10.01358032	-47.21319000
10.01954079	-51.81897000
10.02550125	-48.89523000
10.03146172	-49.93231000
10.03742218	-48.46568000
10.04338264	-49.90952000
10.04934311	-51.80612000
10.05530357	-53.29738000
10.06126404	-51.06272000
10.06722450	-49.79462000
10.07318497	-51.08395000
10.07914543	-52.35575000
10.08510590	-54.78920000
10.09106636	-55.54915000
10.09702682	-55.70591000
10.10298729	-53.05344000
10.10894775	-52.15229000
10.11490822	-52.05529000
10.12086868	-51.72678000
10.12682915	-52.79202000
10.13278961	-47.26118000
10.13875008	-49.35096000
10.14471054	-52.22199000
10.15067101	-54.39533000
10.15663147	-58.24106000
10.16259193	-56.27607000
10.16855240	-53.29266000
10.17451286	-54.46477000
10.18047333	-56.89991000
10.18643379	-55.12093000
10.19239426	-52.93980000
10.19835472	-50.01759000
10.20431519	-47.93581000
10.21027565	-51.50562000
10.21623611	-53.80073000
10.22219658	-52.10136000
10.22815704	-52.15921000
10.23411751	-53.45441000
10.24007797	-53.78642000
10.24603844	-52.29363000
10.25199890	-53.34292000
10.25795937	-54.09023000
10.26391983	-52.92959000
10.26988029	-50.65647000
10.27584076	-50.10784000
10.28180122	-51.46122000
10.28776169	-49.55309000
10.29372215	-49.58957000
10.29968262	-51.22357000
10.30564308	-50.71098000
10.31160355	-49.89262000
10.31756401	-49.49405000
10.32352448	-52.83470000
10.32948494	-47.84896000
10.33544540	-47.71840000
10.34140587	-49.65614000
10.34736633	-51.39661000
10.35332680	-51.97620000
10.35928726	-48.94130000
10.36524773	-48.34881000
10.37120819	-50.29967000
10.37716866	-53.42218000
10.38312912	-50.55243000
10.38908958	-49.20454000
10.39505005	-51.53157000
10.40101051	-51.16634000
10.40697098	-52.31253000
10.41293144	-53.27925000
10.41889191	-51.68948000
10.42485237	-53.93319000
10.43081284	-53.31691000
10.43677330	-52.14197000
10.44273376	-53.51542000
10.44869423	-52.60257000
10.45465469	-51.18735000
10.46061516	-49.65343000
10.46657562	-49.31362000
10.47253609	-51.34982000
10.47849655	-50.24058000
10.48445702	-47.05173000
10.49041748	-42.28097000
10.49637794	-43.02617000
10.50233841	-47.61674000
10.50829887	-52.09188000
10.51425934	-52.64928000
10.52021980	-51.11597000
10.52618027	-51.02340000
10.53214073	-49.62196000
10.53810120	-52.03816000
10.54406166	-51.86150000
10.55002213	-51.45681000
10.55598259	-50.23846000
10.56194305	-50.68814000
10.56790352	-49.47770000
10.57386398	-50.53985000
10.57982445	-49.96967000
10.58578491	-53.31887000
10.59174538	-55.84433000
10.59770584	-55.10294000
10.60366631	-56.27785000
10.60962677	-59.04308000
10.61558723	-56.99748000
10.62154770	-56.83034000
10.62750816	-53.67935000
10.63346863	-54.92550000
10.63942909	-54.63175000
10.64538956	-58.36480000
10.65135002	-58.46215000
10.65731049	-54.94505000
10.66327095	-51.44165000
10.66923141	-49.19255000
10.67519188	-51.52604000
10.68115234	-53.60916000
10.68711281	-55.34233000
10.69307327	-52.26314000
10.69903374	-53.30711000
10.70499420	-54.38149000
10.71095467	-56.22730000
10.71691513	-54.91501000
10.72287560	-53.77564000
10.72883606	-53.45652000
10.73479652	-53.29101000
10.74075699	-50.81356000
10.74671745	-53.01756000
10.75267792	-52.82123000
10.75863838	-51.50126000
10.76459885	-51.17147000
10.77055931	-53.65993000
10.77651978	-50.95868000
10.78248024	-49.32496000
10.78844070	-52.13228000
10.79440117	-50.70523000
10.80036163	-49.72568000
10.80632210	-50.71167000
10.81228256	-48.70246000
10.81824303	-51.55056000
10.82420349	-51.55379000
10.83016396	-49.98922000
10.83612442	-49.57214000
10.84208488	-50.91816000
10.84804535	-51.09392000
10.85400581	-50.18093000
10.85996628	-49.81189000
10.86592674	-51.71780000
10.87188721	-50.15342000
10.87784767	-50.16420000
10.88380814	-50.02844000
10.88976860	-51.33294000
10.89572906	-48.75517000
10.90168953	-50.09409000
10.90764999	-49.79869000
10.91361046	-49.55660000
10.91957092	-49.17609000
10.92553139	-49.61480000
10.93149185	-50.89067000
10.93745232	-50.04236000
10.94341278	-48.79292000
10.94937325	-51.27319000
10.95533371	-55.50148000
10.96129417	-51.77388000
10.96725464	-48.96877000
10.97321510	-47.45568000
10.97917557	-50.55884000
10.98513603	-54.60127000
10.99109650	-54.05481000
10.99705696	-53.99697000
11.00301743	-53.46921000
11.00897789	-50.66718000
11.01493835	-50.07570000
11.02089882	-50.11025000
11.02685928	-49.02043000
11.03281975	-54.38631000
11.03878021	-53.30036000
11.04474068	-53.21545000
11.05070114	-54.35410000
11.05666161	-54.20044000
11.06262207	-51.61654000
11.06858253	-51.95384000
11.07454300	-54.72761000
11.08050346	-54.02134000
11.08646393	-53.39060000
11.09242439	-54.89944000
11.09838486	-54.17949000
11.10434532	-52.39253000
11.11030579	-54.64943000
11.11626625	-55.85024000
11.12222672	-56.16611000
11.12818718	-56.33720000
11.13414764	-53.67937000
11.14010811	-55.04967000
11.14606857	-54.63905000
11.15202904	-54.62258000
11.15798950	-50.66885000
11.16394997	-53.42784000
11.16991043	-54.20070000
11.17587090	-53.60760000
11.18183136	-53.35694000
11.18779182	-51.43213000
11.19375229	-52.65939000
11.19971275	-50.10220000
11.20567322	-50.30338000
11.21163368	-51.27057000
11.21759415	-49.12991000
11.22355461	-48.59303000
11.22951508	-47.41492000
11.23547554	-47.68510000
11.24143600	-49.98671000
11.24739647	-50.13488000
11.25335693	-49.92314000
11.25931740	-51.85980000
11.26527786	-52.43928000
11.27123833	-47.50138000
11.27719879	-44.51223000
11.28315926	-44.05331000
11.28911972	-45.22758000
11.29508018	-46.06758000
11.30104065	-44.56395000
11.30700111	-42.68060000
11.31296158	-39.88912000
11.31892204	-38.19134000
11.32488251	-38.22994000
11.33084297	-36.51646000
11.33680344	-38.31138000
11.34276390	-44.65003000
11.34872437	-45.82620000
11.35468483	-46.77480000
11.36064529	-50.26811000
11.36660576	-50.84324000
11.37256622	-48.22556000
11.37852669	-49.47258000
11.38448715	-50.57070000
11.39044762	-50.23024000
11.39640808	-54.85197000
11.40236855	-56.20252000
11.40832901	-55.99966000
11.41428947	-54.89441000
11.42024994	-53.28681000
11.42621040	-55.03270000
11.43217087	-56.89639000
11.43813133	-56.99757000
11.44409180	-55.16228000
11.45005226	-51.36574000
11.45601273	-53.96869000
11.46197319	-55.17581000
11.46793365	-50.52287000
11.47389412	-50.61075000
11.47985458	-53.93421000
11.48581505	-51.12937000
11.49177551	-47.93051000
11.49773598	-50.85235000
11.50369644	-54.47634000
11.50965691	-54.21223000
11.51561737	-50.78321000
11.52157784	-47.68722000
11.52753830	-49.50529000
11.53349876	-52.48801000
11.53945923	-56.11579000
11.54541969	-55.09933000
11.55138016	-54.52382000
11.55734062	-54.97980000
11.56330109	-53.86719000
11.56926155	-53.10551000
11.57522202	-54.56461000
11.58118248	-56.50895000
11.58714294	-54.42351000
11.59310341	-54.88068000
11.59906387	-54.82794000
11.60502434	-57.90108000
11.61098480	-57.88704000
11.61694527	-57.00324000
11.62290573	-55.25234000
11.62886620	-57.44251000
11.63482666	-56.04869000
11.64078712	-55.16487000
11.64674759	-55.44641000
11.65270805	-53.34914000
11.65866852	-52.48140000
11.66462898	-53.37919000
11.67058945	-50.53198000
11.67654991	-50.56584000
11.68251038	-52.30617000
11.68847084	-51.85778000
11.69443130	-51.49579000
11.70039177	-50.79243000
11.70635223	-51.23178000
11.71231270	-50.20765000
11.71827316	-48.82328000
11.72423363	-47.51225000
11.73019409	-48.04161000
11.73615456	-50.49105000
11.74211502	-50.50783000
11.74807549	-55.24891000
11.75403595	-52.86924000
11.75999641	-54.02722000
11.76595688	-54.26101000
11.77191734	-52.89093000
11.77787781	-53.20982000
11.78383827	-50.51338000
11.78979874	-45.70999000
11.79575920	-46.39021000
11.80171967	-48.67363000
11.80768013	-49.67456000
11.81364059	-52.48124000
11.81960106	-51.87410000
11.82556152	-50.66944000
11.83152199	-50.76454000
11.83748245	-49.06831000
11.84344292	-53.60020000
11.84940338	-53.29345000
11.85536385	-54.69249000
11.86132431	-49.79926000
11.86728477	-52.38915000
11.87324524	-55.87719000
11.87920570	-53.24836000
11.88516617	-53.31892000
11.89112663	-52.96992000
11.89708710	-54.70863000
11.90304756	-55.40912000
11.90900803	-57.59258000
11.91496849	-55.73662000
11.92092896	-52.75077000
11.92688942	-51.72839000
11.93284988	-50.55073000
11.93881035	-51.41680000
11.94477081	-48.95553000
11.95073128	-49.26378000
11.95669174	-51.43274000
11.96265221	-53.19086000
11.96861267	-55.57839000
11.97457314	-56.72353000
11.98053360	-54.30093000
11.98649406	-55.95115000
11.99245453	-58.00306000
11.99841499	-59.05762000
12.00437546	-59.73729000
12.01033592	-59.16583000
12.01629639	-56.18851000
12.02225685	-53.58964000
12.02821732	-53.43624000
12.03417778	-53.47576000
12.04013824	-50.79914000
12.04609871	-49.67946000
12.05205917	-49.50848000
12.05801964	-52.00692000
12.06398010	-52.76805000
12.06994057	-51.74974000
12.07590103	-52.50375000
12.08186150	-53.67966000
12.08782196	-55.93179000
12.09378242	-52.78109000
12.09974289	-53.13830000
12.10570335	-56.30851000
12.11166382	-56.80672000
12.11762428	-57.25925000
12.12358475	-54.06624000
12.12954521	-53.65199000
12.13550568	-56.19139000
12.14146614	-57.61367000
12.14742661	-53.29398000
12.15338707	-52.76398000
12.15934753	-52.24155000
12.16530800	-53.98680000
12.17126846	-54.72126000
12.17722893	-55.55663000
12.18318939	-56.12898000
12.18914986	-53.66190000
12.19511032	-53.47679000
12.20107079	-53.73513000
12.20703125	-54.04176000
12.21299171	-54.10337000
12.21895218	-52.12940000
12.22491264	-54.40051000
12.23087311	-55.86927000
12.23683357	-55.42719000
12.24279404	-55.75958000
12.24875450	-56.71170000
12.25471497	-54.04375000
12.26067543	-54.20512000
12.26663589	-54.92852000
12.27259636	-53.75558000
12.27855682	-52.50359000
12.28451729	-52.63970000
12.29047775	-53.78937000
12.29643822	-56.59132000
12.30239868	-54.51961000
12.30835915	-51.77219000
12.31431961	-52.11742000
12.32028008	-53.17083000
12.32624054	-55.08416000
12.33220100	-55.65609000
12.33816147	-50.43224000
12.34412193	-49.48129000
12.35008240	-52.77235000
12.35604286	-56.11069000
12.36200333	-56.22352000
12.36796379	-56.59682000
12.37392426	-54.56261000
12.37988472	-55.50192000
12.38584518	-57.50189000
12.39180565	-56.02442000
12.39776611	-55.54525000
12.40372658	-55.53400000
12.40968704	-53.36964000
12.41564751	-53.43563000
12.42160797	-49.91521000
12.42756844	-52.70679000
12.43352890	-50.44404000
12.43948936	-52.15774000
12.44544983	-54.25922000
12.45141029	-55.24161000
12.45737076	-59.58601000
12.46333122	-58.92269000
12.46929169	-59.04266000
12.47525215	-60.50758000
12.48121262	-59.50409000
12.48717308	-58.18054000
12.49313354	-57.71101000
12.49909401	-58.46592000
12.50505447	-56.11676000
12.51101494	-54.71215000
12.51697540	-58.52730000
12.52293587	-59.50402000
12.52889633	-58.91426000
12.53485680	-59.80474000
12.54081726	-58.27095000
12.54677773	-58.15855000
12.55273819	-55.28287000
12.55869865	-53.42875000
12.56465912	-53.86240000
12.57061958	-52.70554000
12.57658005	-53.50555000
12.58254051	-53.13833000
12.58850098	-56.64857000
12.59446144	-56.63851000
12.60042191	-56.68984000
12.60638237	-54.99279000
12.61234283	-55.69860000
12.61830330	-55.85867000
12.62426376	-56.29429000
12.63022423	-55.72871000
12.63618469	-53.10034000
12.64214516	-50.97279000
12.64810562	-54.05436000
12.65406609	-51.35847000
12.66002655	-51.67531000
12.66598701	-54.45345000
12.67194748	-54.65435000
12.67790794	-53.30475000
12.68386841	-53.20402000
12.68982887	-54.75828000
12.69578934	-55.52407000
12.70174980	-54.29230000
12.70771027	-53.33900000
12.71367073	-54.01257000
12.71963120	-57.12425000
12.72559166	-57.34665000
12.73155212	-52.28644000
12.73751259	-52.70903000
12.74347305	-55.35666000
12.74943352	-54.16813000
12.75539398	-55.31413000
12.76135445	-55.13274000
12.76731491	-54.96362000
12.77327538	-52.52586000
12.77923584	-51.43395000
12.78519630	-48.38718000
12.79115677	-47.35870000
12.79711723	-49.03439000
12.80307770	-56.03725000
12.80903816	-57.41029000
12.81499863	-55.39441000
12.82095909	-54.91732000
12.82691956	-58.12961000
12.83288002	-58.41436000
12.83884048	-56.61991000
12.84480095	-55.37458000
12.85076141	-54.19975000
12.85672188	-53.40737000
12.86268234	-54.02279000
12.86864281	-53.57212000
12.87460327	-53.29675000
12.88056374	-55.81425000
12.88652420	-52.39719000
12.89248466	-49.71386000
12.89844513	-52.62154000
12.90440559	-51.35113000
12.91036606	-52.03770000
12.91632652	-56.70113000
12.92228699	-56.39667000
12.92824745	-56.24080000
12.93420792	-52.00061000
12.94016838	-49.90604000
12.94612885	-50.91508000
12.95208931	-47.29374000
12.95804977	-46.26809000
12.96401024	-50.09798000
12.96997070	-55.23329000
12.97593117	-57.13644000
12.98189163	-56.02852000
12.98785210	-55.85379000
12.99381256	-58.77818000
12.99977303	-60.86594000
13.00573349	-62.10033000
13.01169395	-61.78467000
13.01765442	-57.30551000
13.02361488	-55.27245000
13.02957535	-58.77037000
13.03553581	-59.71949000
13.04149628	-58.90726000
13.04745674	-59.00412000
13.05341721	-60.08950000
13.05937767	-58.25668000
13.06533813	-57.50512000
13.07129860	-56.23909000
13.07725906	-56.19253000
13.08321953	-55.72859000
13.08917999	-56.25008000
13.09514046	-59.89548000
13.10110092	-58.52102000
13.10706139	-60.55492000
13.11302185	-61.66599000
13.11898232	-57.32042000
13.12494278	-56.70024000
13.13090324	-58.24607000
13.13686371	-55.63396000
13.14282417	-56.68108000
13.14878464	-56.78973000
13.15474510	-56.91421000
13.16070557	-58.34162000
13.16666603	-57.66621000
13.17262650	-57.18334000
13.17858696	-57.92336000
13.18454742	-56.89408000
13.19050789	-56.71120000
13.19646835	-56.46738000
13.20242882	-57.23302000
13.20838928	-56.26504000
13.21434975	-53.95262000
13.22031021	-53.11776000
13.22627068	-56.02538000
13.23223114	-53.04902000
13.23819160	-51.01595000
13.24415207	-52.83570000
13.25011253	-53.76775000
13.25607300	-52.40442000
13.26203346	-50.70189000
13.26799393	-49.73917000
13.27395439	-51.80275000
13.27991486	-55.18726000
13.28587532	-56.48417000
13.29183578	-55.87816000
13.29779625	-55.37977000
13.30375671	-57.43839000
13.30971718	-57.26782000
13.31567764	-56.75186000
13.32163811	-58.08390000
13.32759857	-57.89615000
13.33355904	-58.10391000
13.33951950	-59.02086000
13.34547997	-59.04736000
13.35144043	-59.17708000
13.35740089	-55.34402000
13.36336136	-53.98096000
13.36932182	-56.78218000
13.37528229	-58.84091000
13.38124275	-55.74036000
13.38720322	-54.37679000
13.39316368	-55.38892000
13.39912415	-56.38356000
13.40508461	-56.45256000
13.41104507	-59.64180000
13.41700554	-61.65289000
13.42296600	-57.53491000
13.42892647	-59.45250000
13.43488693	-58.29668000
13.44084740	-58.87772000
13.44680786	-59.08720000
13.45276833	-61.46521000
13.45872879	-57.82465000
13.46468925	-57.77881000
13.47064972	-60.93149000
13.47661018	-57.56674000
13.48257065	-53.91930000
13.48853111	-55.52543000
13.49449158	-60.82322000
13.50045204	-61.58689000
13.50641251	-60.33804000
13.51237297	-59.57725000
13.51833344	-61.58259000
13.52429390	-61.37210000
13.53025436	-59.39734000
13.53621483	-57.91683000
13.54217529	-57.66090000
13.54813576	-54.38812000
13.55409622	-53.97007000
13.56005669	-55.34771000
13.56601715	-55.52718000
13.57197762	-53.69109000
13.57793808	-55.21513000
13.58389854	-59.28443000
13.58985901	-57.33472000
13.59581947	-58.10463000
13.60177994	-58.40575000
13.60774040	-57.99441000
13.61370087	-57.65793000
13.61966133	-58.54841000
13.62562180	-55.72543000
13.63158226	-55.42823000
13.63754272	-54.81269000
13.64350319	-55.17633000
13.64946365	-54.07169000
13.65542412	-51.79133000
13.66138458	-50.81276000
13.66734505	-53.54740000
13.67330551	-53.03410000
13.67926598	-56.66588000
13.68522644	-57.96755000
13.69118690	-59.12166000
13.69714737	-56.82666000
13.70310783	-58.18924000
13.70906830	-57.65570000
13.71502876	-55.21509000
13.72098923	-56.97086000
13.72694969	-56.44771000
13.73291016	-54.67221000
13.73887062	-56.02565000
13.74483109	-54.92617000
13.75079155	-54.81040000
13.75675201	-54.10587000
13.76271248	-54.29027000
13.76867294	-54.25480000
13.77463341	-52.50925000
13.78059387	-53.77963000
13.78655434	-54.26388000
13.79251480	-52.86023000
13.79847527	-51.41816000
13.80443573	-49.68514000
13.81039619	-48.42722000
13.81635666	-53.29891000
13.82231712	-48.42503000
13.82827759	-47.00885000
13.83423805	-51.83176000
13.84019852	-56.71637000
13.84615898	-58.19989000
13.85211945	-56.48431000
13.85807991	-59.22848000
13.86404037	-57.40166000
13.87000084	-59.05573000
13.87596130	-62.84207000
13.88192177	-61.15630000
13.88788223	-60.59525000
13.89384270	-56.95694000
13.89980316	-58.63395000
13.90576363	-54.54183000
13.91172409	-53.77472000
13.91768456	-55.84679000
13.92364502	-57.48455000
13.92960548	-54.91691000
13.93556595	-59.20242000
13.94152641	-56.42452000
13.94748688	-54.24837000
13.95344734	-56.64079000
13.95940781	-58.46858000
13.96536827	-59.05025000
13.97132874	-61.25080000
13.97728920	-58.85136000
13.98324966	-57.76205000
13.98921013	-57.45357000
13.99517059	-58.50738000
14.00113106	-58.40792000
14.00709152	-58.70967000
14.01305199	-60.33443000
14.01901245	-60.44212000
14.02497292	-59.81604000
14.03093338	-60.88367000
14.03689384	-60.15958000
14.04285431	-59.01449000
14.04881477	-59.70014000
14.05477524	-58.71049000
14.06073570	-60.65091000
14.06669617	-62.23090000
14.07265663	-62.56947000
14.07861710	-60.62235000
14.08457756	-60.50283000
14.09053802	-62.05834000
14.09649849	-62.17727000
14.10245895	-59.56062000
14.10841942	-63.46923000
14.11437988	-62.19455000
14.12034035	-58.72582000
14.12630081	-59.53640000
14.13226128	-62.43358000
14.13822174	-61.92139000
14.14418221	-59.61149000
14.15014267	-54.65422000
14.15610313	-55.63187000
14.16206360	-57.16346000
14.16802406	-56.90756000
14.17398453	-58.37199000
14.17994499	-60.40148000
14.18590546	-61.41063000
14.19186592	-61.41461000
14.19782639	-60.45031000
14.20378685	-58.93203000
14.20974731	-58.04714000
14.21570778	-57.42992000
14.22166824	-56.73043000
14.22762871	-58.33107000
14.23358917	-59.74416000
14.23954964	-59.39946000
14.24551010	-54.74998000
14.25147057	-54.98729000
14.25743103	-61.88667000
14.26339149	-60.88925000
14.26935196	-58.31491000
14.27531242	-57.67635000
14.28127289	-57.57294000
14.28723335	-58.43266000
14.29319382	-57.69258000
14.29915428	-58.17449000
14.30511475	-55.77740000
14.31107521	-53.50775000
14.31703568	-55.15854000
14.32299614	-59.47349000
14.32895660	-58.78897000
14.33491707	-59.43321000
14.34087753	-58.77918000
14.34683800	-58.97908000
14.35279846	-59.76097000
14.35875893	-58.04680000
14.36471939	-57.36264000
14.37067986	-57.96602000
14.37664032	-57.99937000
14.38260078	-57.85080000
14.38856125	-56.19492000
14.39452171	-54.03664000
14.40048218	-56.81312000
14.40644264	-58.97344000
14.41240311	-57.17557000
14.41836357	-57.03911000
14.42432404	-59.91116000
14.43028450	-57.12469000
14.43624496	-58.74239000
14.44220543	-63.14342000
14.44816589	-62.13646000
14.45412636	-62.51322000
14.46008682	-59.44897000
14.46604729	-57.22489000
14.47200775	-61.64721000
14.47796822	-61.39968000
14.48392868	-60.05167000
14.48988914	-60.70392000
14.49584961	-63.52344000
14.50181007	-63.79335000
14.50777054	-63.38108000
14.51373100	-62.88625000
14.51969147	-62.78467000
14.52565193	-62.33945000
14.53161240	-63.16674000
14.53757286	-62.82818000
14.54353333	-61.71494000
14.54949379	-59.99513000
14.55545425	-60.84008000
14.56141472	-61.58298000
14.56737518	-63.14544000
14.57333565	-63.99350000
14.57929611	-63.36611000
14.58525658	-63.02292000
14.59121704	-61.96565000
14.59717751	-60.46793000
14.60313797	-61.81222000
14.60909843	-63.53915000
14.61505890	-62.95814000
14.62101936	-60.20620000
14.62697983	-58.97551000
14.63294029	-59.81749000
14.63890076	-61.36400000
14.64486122	-57.52172000
14.65082169	-56.62121000
14.65678215	-59.19067000
14.66274261	-58.43906000
14.66870308	-58.65187000
14.67466354	-60.82867000
14.68062401	-59.30825000
14.68658447	-59.80507000
14.69254494	-59.53519000
14.69850540	-56.48986000
14.70446587	-56.74139000
14.71042633	-59.20599000
14.71638680	-60.38980000
14.72234726	-57.55455000
14.72830772	-55.49477000
14.73426819	-57.68418000
14.74022865	-60.04583000
14.74618912	-63.18161000
14.75214958	-63.30931000
14.75811005	-63.34553000
14.76407051	-59.35871000
14.77003098	-59.76192000
14.77599144	-60.23239000
14.78195190	-57.66663000
14.78791237	-62.42915000
14.79387283	-63.59545000
14.79983330	-64.25529000
14.80579376	-63.24488000
14.81175423	-62.93558000
14.81771469	-64.04318000
14.82367516	-63.98364000
14.82963562	-62.01704000
14.83559608	-66.17665000
14.84155655	-64.39621000
14.84751701	-63.48581000
14.85347748	-65.40269000
14.85943794	-62.10963000
14.86539841	-60.74774000
14.87135887	-63.29854000
14.87731934	-62.41436000
14.88327980	-64.18573000
14.88924026	-64.19048000
14.89520073	-62.48791000
14.90116119	-63.10017000
14.90712166	-63.85880000
14.91308212	-59.39952000
14.91904259	-60.54015000
14.92500305	-60.18212000
14.93096352	-59.21690000
14.93692398	-61.73740000
14.94288445	-63.90488000
14.94884491	-60.23864000
14.95480537	-60.13389000
14.96076584	-59.23870000
14.96672630	-59.49320000
14.97268677	-60.89521000
14.97864723	-60.97591000
14.98460770	-59.40778000
14.99056816	-58.85752000
14.99652863	-62.43427000
15.00248909	-59.22540000
15.00844955	-56.87641000
15.01441002	-60.38749000
15.02037048	-61.64793000
15.02633095	-61.26814000
15.03229141	-62.33551000
15.03825188	-61.95426000
15.04421234	-61.50673000
15.05017281	-61.49229000
15.05613327	-61.98124000
15.06209373	-62.22727000
15.06805420	-62.23907000
15.07401466	-63.97055000
15.07997513	-65.11620000
15.08593559	-65.18843000
15.09189606	-63.25670000
15.09785652	-63.04264000
15.10381699	-64.53342000
15.10977745	-64.89613000
15.11573792	-65.74134000
15.12169838	-65.53987000
15.12765884	-64.90260000
15.13361931	-63.66535000
15.13957977	-62.50090000
15.14554024	-61.28175000
15.15150070	-59.47320000
15.15746117	-59.31351000
15.16342163	-58.40385000
15.16938210	-56.87218000
15.17534256	-57.47223000
15.18130302	-58.29703000
15.18726349	-56.01676000
15.19322395	-55.07202000
15.19918442	-57.26507000
15.20514488	-59.31259000
15.21110535	-58.51893000
15.21706581	-55.49079000
15.22302628	-57.75378000
15.22898674	-60.11293000
15.23494720	-60.15273000
15.24090767	-61.26122000
15.24686813	-61.12865000
15.25282860	-61.63679000
15.25878906	-62.19582000
15.26474953	-62.97091000
15.27070999	-61.74781000
15.27667046	-58.96630000
15.28263092	-59.89675000
15.28859138	-61.68883000
15.29455185	-61.46397000
15.30051231	-61.56895000
15.30647278	-62.71084000
15.31243324	-62.60331000
15.31839371	-63.85217000
15.32435417	-63.27929000
15.33031464	-63.60851000
15.33627510	-64.12364000
15.34223557	-63.93679000
15.34819603	-65.11076000
15.35415649	-66.29594000
15.36011696	-65.82707000
15.36607742	-64.51756000
15.37203789	-63.53798000
15.37799835	-68.54027000
15.38395882	-65.02383000
15.38991928	-66.71841000
15.39587975	-63.29148000
15.40184021	-63.72245000
15.40780067	-67.17265000
15.41376114	-66.99849000
15.41972160	-65.21674000
15.42568207	-63.73714000
15.43164253	-63.63831000
15.43760300	-62.05943000
15.44356346	-61.67326000
15.44952393	-62.57033000
15.45548439	-65.06050000
15.46144485	-64.97328000
15.46740532	-63.53662000
15.47336578	-64.87466000
15.47932625	-64.58142000
15.48528671	-64.90099000
15.49124718	-66.67369000
15.49720764	-64.57365000
15.50316811	-65.56517000
15.50912857	-66.26054000
15.51508904	-65.86089000
15.52104950	-68.60992000
15.52700996	-61.97181000
15.53297043	-64.82587000
15.53893089	-68.15703000
15.54489136	-65.83717000
15.55085182	-65.57036000
15.55681229	-63.70479000
15.56277275	-67.22665000
15.56873322	-66.43210000
15.57469368	-67.25040000
15.58065414	-66.15446000
15.58661461	-67.21350000
15.59257507	-67.78266000
15.59853554	-68.28233000
15.60449600	-66.33741000
15.61045647	-66.20299000
15.61641693	-68.60963000
15.62237740	-63.19676000
15.62833786	-67.17082000
15.63429832	-65.95091000
15.64025879	-65.29035000
15.64621925	-63.95618000
15.65217972	-64.73468000
15.65814018	-61.68007000
15.66410065	-62.28299000
15.67006111	-65.47590000
15.67602158	-67.48635000
15.68198204	-64.26341000
15.68794250	-63.69884000
15.69390297	-60.86430000
15.69986343	-62.00710000
15.70582390	-58.99901000
15.71178436	-54.65460000
15.71774483	-54.39241000
15.72370529	-59.18886000
15.72966576	-60.56461000
15.73562622	-61.38708000
15.74158669	-59.42892000
15.74754715	-58.84106000
15.75350761	-55.08199000
15.75946808	-54.24967000
15.76542854	-52.48808000
15.77138901	-53.34504000
15.77734947	-59.73488000
15.78330994	-63.30539000
15.78927040	-63.06242000
15.79523087	-60.97612000
15.80119133	-60.57198000
15.80715179	-61.89323000
15.81311226	-63.08020000
15.81907272	-62.32010000
15.82503319	-64.90366000
15.83099365	-63.78096000
15.83695412	-62.84763000
15.84291458	-62.82966000
15.84887505	-63.03947000
15.85483551	-63.97198000
15.86079597	-65.34112000
15.86675644	-64.05747000
15.87271690	-65.78413000
15.87867737	-68.42343000
15.88463783	-65.94447000
15.89059830	-66.40252000
15.89655876	-66.30322000
15.90251923	-65.57880000
15.90847969	-64.52036000
15.91444016	-62.99961000
15.92040062	-66.69814000
15.92636108	-66.43610000
15.93232155	-65.51690000
15.93828201	-64.24992000
15.94424248	-65.51041000
15.95020294	-66.08136000
15.95616341	-64.78159000
15.96212387	-63.80765000
15.96808434	-64.52607000
15.97404480	-65.33303000
15.98000526	-66.05152000
15.98596573	-68.85588000
15.99192619	-67.83389000
15.99788666	-68.16426000
16.00384712	-68.37439000
16.00980759	-69.47592000
16.01576805	-70.39941000
16.02172852	-67.38998000
16.02768898	-67.45099000
16.03364944	-67.81100000
16.03960991	-66.26560000
16.04557037	-67.54149000
16.05153084	-68.27811000
16.05749130	-68.63238000
16.06345177	-69.92561000
16.06941223	-66.73843000
16.07537270	-67.70951000
16.08133316	-68.71365000
16.08729362	-67.62779000
16.09325409	-65.96490000
16.09921455	-67.88594000
16.10517502	-69.39992000
16.11113548	-69.66597000
16.11709595	-68.19912000
16.12305641	-68.85831000
16.12901688	-69.26855000
16.13497734	-69.74084000
16.14093781	-70.66035000
16.14689827	-69.78529000
16.15285873	-70.90045000
16.15881920	-69.55250000
16.16477966	-69.20715000
16.17074013	-69.54883000
16.17670059	-69.70748000
16.18266106	-68.70090000
16.18862152	-70.50990000
16.19458199	-69.55884000
16.20054245	-66.65173000
16.20650291	-66.69334000
16.21246338	-66.15797000
16.21842384	-68.13144000
16.22438431	-66.01325000
16.23034477	-66.28920000
16.23630524	-68.64597000
16.24226570	-68.35379000
16.24822617	-65.31703000
16.25418663	-64.56571000
16.26014709	-63.87614000
16.26610756	-64.58318000
16.27206802	-65.35003000
16.27802849	-66.34721000
16.28398895	-67.93895000
16.28994942	-67.22406000
16.29590988	-66.01743000
16.30187035	-66.75227000
16.30783081	-67.18400000
16.31379128	-65.90376000
16.31975174	-67.75565000
16.32571220	-68.95370000
16.33167267	-69.41171000
16.33763313	-69.68324000
16.34359360	-66.69083000
16.34955406	-65.84798000
16.35551453	-66.34484000
16.36147499	-66.19806000
16.36743546	-66.81594000
16.37339592	-67.55309000
16.37935638	-68.86272000
16.38531685	-68.26698000
16.39127731	-68.13101000
16.39723778	-68.62004000
16.40319824	-69.79140000
16.40915871	-70.65364000
16.41511917	-68.98554000
16.42107964	-66.62019000
16.42704010	-68.13823000
16.43300056	-68.90422000
16.43896103	-69.35487000
16.44492149	-68.65704000
16.45088196	-65.42796000
16.45684242	-66.64193000
16.46280289	-63.06372000
16.46876335	-60.87496000
16.47472382	-61.35213000
16.48068428	-63.02719000
16.48664474	-63.53390000
16.49260521	-63.73188000
16.49856567	-64.29918000
16.50452614	-63.95741000
16.51048660	-63.36052000
16.51644707	-62.65845000
16.52240753	-62.27974000
16.52836800	-62.79333000
16.53432846	-61.77733000
16.54028893	-62.54631000
16.54624939	-62.94215000
16.55220985	-65.02127000
16.55817032	-65.31400000
16.56413078	-65.61279000
16.57009125	-68.03100000
16.57605171	-69.15298000
16.58201218	-67.41866000
16.58797264	-65.76128000
16.59393311	-67.34237000
16.59989357	-69.67129000
16.60585403	-68.72424000
16.61181450	-70.22914000
16.61777496	-70.81628000
16.62373543	-69.71385000
16.62969589	-68.86388000
16.63565636	-67.16515000
16.64161682	-67.70825000
16.64757729	-67.22335000
16.65353775	-67.20277000
16.65949821	-69.61615000
16.66545868	-68.64495000
16.67141914	-66.03284000
16.67737961	-64.66374000
16.68334007	-64.75082000
16.68930054	-65.52396000
16.69526100	-67.73059000
16.70122147	-65.82362000
16.70718193	-64.09998000
16.71314240	-63.61738000
16.71910286	-62.81100000
16.72506332	-62.88558000
16.73102379	-62.51910000
16.73698425	-63.61836000
16.74294472	-63.80386000
16.74890518	-62.14651000
16.75486565	-62.61029000
16.76082611	-62.63153000
16.76678658	-62.66840000
16.77274704	-63.65801000
16.77870750	-64.91026000
16.78466797	-67.53061000
16.79062843	-68.31405000
16.79658890	-67.30708000
16.80254936	-65.31294000
16.80850983	-64.73223000
16.81447029	-66.39468000
16.82043076	-68.69964000
16.82639122	-66.63387000
16.83235168	-62.57331000
16.83831215	-62.58540000
16.84427261	-64.59795000
16.85023308	-64.57320000
16.85619354	-67.58075000
16.86215401	-66.11919000
16.86811447	-65.51667000
16.87407494	-62.50533000
16.88003540	-63.04457000
16.88599586	-64.77405000
16.89195633	-66.77853000
16.89791679	-63.45368000
16.90387726	-61.23259000
16.90983772	-62.57915000
16.91579819	-64.09702000
16.92175865	-65.89066000
16.92771912	-64.70125000
16.93367958	-63.72101000
16.93964005	-60.69447000
16.94560051	-63.46079000
16.95156097	-63.56799000
16.95752144	-63.56321000
16.96348190	-65.17777000
16.96944237	-66.31612000
16.97540283	-66.37103000
16.98136330	-65.15540000
16.98732376	-64.75359000
16.99328423	-64.87692000
16.99924469	-62.89956000
17.00520515	-60.61014000
17.01116562	-60.26152000
17.01712608	-61.94517000
17.02308655	-64.31319000
17.02904701	-64.67190000
17.03500748	-63.56849000
17.04096794	-63.01014000
17.04692841	-63.22759000
17.05288887	-63.70512000
17.05884933	-65.24474000
17.06480980	-67.89910000
17.07077026	-68.46802000
17.07673073	-67.16490000
17.08269119	-68.03521000
17.08865166	-68.83437000
17.09461212	-69.49779000
17.10057259	-69.21681000
17.10653305	-68.07030000
17.11249352	-67.46110000
17.11845398	-67.33053000
17.12441444	-68.76027000
17.13037491	-68.06107000
17.13633537	-69.72780000
17.14229584	-67.26782000
17.14825630	-66.33300000
17.15421677	-68.08501000
17.16017723	-65.74479000
17.16613770	-64.85934000
17.17209816	-67.02917000
17.17805862	-64.08788000
17.18401909	-65.48776000
17.18997955	-65.77252000
17.19594002	-66.94850000
17.20190048	-67.94772000
17.20786095	-66.86917000
17.21382141	-65.21462000
17.21978188	-66.09261000
17.22574234	-66.09219000
17.23170280	-67.02165000
17.23766327	-67.20750000
17.24362373	-65.67869000
17.24958420	-65.23105000
17.25554466	-65.14413000
17.26150513	-63.89075000
17.26746559	-64.56168000
17.27342606	-67.93809000
17.27938652	-68.45959000
17.28534698	-70.32968000
17.29130745	-70.07430000
17.29726791	-68.86156000
17.30322838	-70.72047000
17.30918884	-70.95920000
17.31514931	-69.16353000
17.32110977	-68.54197000
17.32707024	-67.32833000
17.33303070	-65.67334000
17.33899117	-65.62349000
17.34495163	-68.03620000
17.35091209	-71.31967000
17.35687256	-70.90089000
17.36283302	-71.88250000
17.36879349	-71.62865000
17.37475395	-71.12619000
17.38071442	-70.53395000
17.38667488	-70.58354000
17.39263535	-67.43491000
17.39859581	-70.27280000
17.40455627	-69.60784000
17.41051674	-70.20750000
17.41647720	-71.32680000
17.42243767	-70.62514000
17.42839813	-69.86836000
17.43435860	-71.25409000
17.44031906	-68.95913000
17.44627953	-69.48900000
17.45223999	-71.32869000
17.45820045	-70.22217000
17.46416092	-69.94832000
17.47012138	-66.67134000
17.47608185	-66.92992000
17.48204231	-69.93047000
17.48800278	-71.17891000
17.49396324	-71.10175000
17.49992371	-69.68378000
17.50588417	-70.73335000
17.51184464	-71.44613000
17.51780510	-71.84029000
17.52376556	-68.15863000
17.52972603	-67.49191000
17.53568649	-69.58263000
17.54164696	-70.35625000
17.54760742	-69.79428000
17.55356789	-68.58897000
17.55952835	-68.28989000
17.56548882	-68.42140000
17.57144928	-68.85030000
17.57740974	-69.58327000
17.58337021	-70.60920000
17.58933067	-71.03805000
17.59529114	-71.58253000
17.60125160	-71.19881000
17.60721207	-71.43939000
17.61317253	-71.76842000
17.61913300	-71.34586000
17.62509346	-71.41933000
17.63105392	-71.80398000
17.63701439	-69.28132000
17.64297485	-68.16620000
17.64893532	-70.30324000
17.65489578	-69.73572000
17.66085625	-69.34121000
17.66681671	-67.83196000
17.67277718	-65.58526000
17.67873764	-67.41437000
17.68469810	-68.57642000
17.69065857	-67.99293000
17.69661903	-65.51511000
17.70257950	-66.85810000
17.70853996	-67.32436000
17.71450043	-63.21781000
17.72046089	-64.96167000
17.72642136	-66.37197000
17.73238182	-65.75701000
17.73834229	-65.74354000
17.74430275	-68.23293000
17.75026321	-69.83204000
17.75622368	-69.47935000
17.76218414	-69.55476000
17.76814461	-69.91908000
17.77410507	-69.58539000
17.78006554	-68.04103000
17.78602600	-69.53310000
17.79198647	-68.41434000
17.79794693	-70.10639000
17.80390739	-70.74697000
17.80986786	-69.37440000
17.81582832	-70.23054000
17.82178879	-70.13957000
17.82774925	-68.57610000
17.83370972	-68.27968000
17.83967018	-69.27878000
17.84563065	-69.52821000
17.85159111	-69.96146000
17.85755157	-68.59113000
17.86351204	-68.36807000
17.86947250	-69.13663000
17.87543297	-69.77197000
17.88139343	-71.19897000
17.88735390	-71.22811000
17.89331436	-70.91060000
17.89927483	-68.97074000
17.90523529	-69.75039000
17.91119576	-68.32941000
17.91715622	-70.08978000
17.92311668	-70.37023000
17.92907715	-70.87521000
17.93503761	-71.65166000
17.94099808	-71.54878000
17.94695854	-69.80504000
17.95291901	-70.85976000
17.95887947	-71.81056000
17.96483994	-71.07383000
17.97080040	-70.50594000
17.97676086	-70.31209000
17.98272133	-69.46887000
17.98868179	-69.44287000
17.99464226	-69.51764000
18.00060272	-70.40201000
18.00656319	-70.40496000
18.01252365	-70.45631000
18.01848412	-70.90705000
18.02444458	-72.01736000
18.03040504	-70.63407000
18.03636551	-68.06815000
18.04232597	-68.47043000
18.04828644	-67.89072000
18.05424690	-66.78505000
18.06020737	-68.23692000
18.06616783	-68.23450000
18.07212830	-69.82336000
18.07808876	-68.66583000
18.08404922	-69.06650000
18.09000969	-67.91309000
18.09597015	-65.38544000
18.10193062	-67.49895000
18.10789108	-68.29680000
18.11385155	-64.22918000
18.11981201	-66.47378000
18.12577248	-66.86577000
18.13173294	-67.77314000
18.13769341	-70.70313000
18.14365387	-69.40770000
18.14961433	-69.19081000
18.15557480	-66.37570000
18.16153526	-70.25134000
18.16749573	-70.47610000
18.17345619	-69.46806000
18.17941666	-71.53601000
18.18537712	-70.30943000
18.19133759	-67.96762000
18.19729805	-69.43330000
18.20325851	-69.15503000
18.20921898	-70.29390000
18.21517944	-70.34309000
18.22113991	-69.51199000
18.22710037	-71.26525000
18.23306084	-70.56906000
18.23902130	-70.32626000
18.24498177	-68.38380000
18.25094223	-70.21624000
18.25690269	-69.94747000
18.26286316	-68.94688000
18.26882362	-71.10037000
18.27478409	-70.73412000
18.28074455	-71.44944000
18.28670502	-71.32950000
18.29266548	-70.79948000
18.29862595	-70.93378000
18.30458641	-71.09698000
18.31054688	-70.70687000
18.31650734	-70.03219000
18.32246780	-71.31678000
18.32842827	-71.10973000
18.33438873	-68.03560000
18.34034920	-68.98240000
18.34630966	-69.20467000
18.35227013	-68.06443000
18.35823059	-68.99367000
18.36419106	-69.23074000
18.37015152	-71.94458000
18.37611198	-70.84880000
18.38207245	-70.88566000
18.38803291	-70.70739000
18.39399338	-71.91954000
18.39995384	-70.68715000
18.40591431	-71.63773000
18.41187477	-70.21266000
18.41783524	-69.67828000
18.42379570	-69.58476000
18.42975616	-69.07355000
18.43571663	-70.60942000
18.44167709	-71.59676000
18.44763756	-71.02646000
18.45359802	-70.66508000
18.45955849	-70.48174000
18.46551895	-71.23702000
18.47147942	-71.65280000
18.47743988	-70.82153000
18.48340034	-69.92789000
18.48936081	-70.18401000
18.49532127	-70.23466000
18.50128174	-70.19146000
18.50724220	-69.58999000
18.51320267	-71.21243000
18.51916313	-70.38049000
18.52512360	-70.36961000
18.53108406	-67.39177000
18.53704453	-69.55303000
18.54300499	-68.74664000
18.54896545	-70.65870000
18.55492592	-71.34949000
18.56088638	-70.98021000
18.56684685	-71.52813000
18.57280731	-71.26014000
18.57876778	-70.58724000
18.58472824	-71.04063000
18.59068871	-70.21053000
18.59664917	-69.73558000
18.60260963	-70.64989000
18.60857010	-69.11649000
18.61453056	-69.73013000
18.62049103	-70.82629000
18.62645149	-69.63094000
18.63241196	-69.50797000
18.63837242	-68.63542000
18.64433289	-70.67313000
18.65029335	-71.34589000
18.65625381	-70.21252000
18.66221428	-71.91179000
18.66817474	-70.72464000
18.67413521	-70.68874000
18.68009567	-69.16960000
18.68605614	-70.99684000
18.69201660	-70.26359000
18.69797707	-70.68138000
18.70393753	-68.67426000
18.70989799	-70.68299000
18.71585846	-70.15411000
18.72181892	-68.42035000
18.72777939	-69.91563000
18.73373985	-70.70772000
18.73970032	-70.42957000
18.74566078	-71.36443000
18.75162125	-71.62036000
18.75758171	-71.92185000
18.76354218	-70.40210000
18.76950264	-70.58020000
18.77546310	-70.58974000
18.78142357	-70.84824000
18.78738403	-69.84175000
18.79334450	-71.30682000
18.79930496	-71.68070000
18.80526543	-71.16476000
18.81122589	-70.89861000
18.81718636	-69.18905000
18.82314682	-68.41740000
18.82910728	-72.27426000
18.83506775	-71.68354000
18.84102821	-68.31058000
18.84698868	-69.58189000
18.85294914	-70.62460000
18.85890961	-71.78797000
18.86487007	-69.47802000
18.87083054	-69.69917000
18.87679100	-70.93654000
18.88275146	-69.96951000
18.88871193	-70.96704000
18.89467239	-71.64824000
18.90063286	-71.23738000
18.90659332	-69.87342000
18.91255379	-70.65266000
18.91851425	-70.64856000
18.92447472	-71.81839000
18.93043518	-72.67287000
18.93639565	-70.51846000
18.94235611	-70.94763000
18.94831657	-71.70170000
18.95427704	-71.20684000
18.96023750	-70.50194000
18.96619797	-70.58141000
18.97215843	-70.41530000
18.97811890	-70.09428000
18.98407936	-71.70210000
18.99003983	-70.88739000
18.99600029	-70.05147000
19.00196075	-71.76816000
19.00792122	-70.16413000
19.01388168	-70.37025000
19.01984215	-69.87389000
19.02580261	-70.30599000
19.03176308	-71.26649000
19.03772354	-69.62562000
19.04368401	-70.06486000
19.04964447	-70.09239000
19.05560493	-69.70795000
19.06156540	-67.87442000
19.06752586	-69.65042000
19.07348633	-71.05314000
19.07944679	-72.15741000
19.08540726	-70.72200000
19.09136772	-70.14912000
19.09732819	-70.27927000
19.10328865	-70.08266000
19.10924911	-70.84515000
19.11520958	-71.12527000
19.12117004	-69.76814000
19.12713051	-71.58714000
19.13309097	-70.84565000
19.13905144	-71.26032000
19.14501190	-71.62353000
19.15097237	-70.77106000
19.15693283	-69.17473000
19.16289330	-70.37007000
19.16885376	-71.15409000
19.17481422	-71.44826000
19.18077469	-69.70014000
19.18673515	-69.05394000
19.19269562	-69.96096000
19.19865608	-71.30231000
19.20461655	-69.27947000
19.21057701	-69.48276000
19.21653748	-71.13484000
19.22249794	-71.76157000
19.22845840	-70.80616000
19.23441887	-71.50588000
19.24037933	-71.10680000
19.24633980	-71.15910000
19.25230026	-70.54688000
19.25826073	-70.00146000
19.26422119	-70.20406000
19.27018166	-71.48669000
19.27614212	-70.95769000
19.28210258	-70.62946000
19.28806305	-67.41090000
19.29402351	-67.95013000
19.29998398	-68.14918000
19.30594444	-67.21353000
19.31190491	-64.16069000
19.31786537	-66.20224000
19.32382584	-70.00611000
19.32978630	-67.82436000
19.33574677	-68.63795000
19.34170723	-66.52459000
19.34766769	-69.38548000
19.35362816	-68.28300000
19.35958862	-67.69627000
19.36554909	-69.36590000
19.37150955	-70.29417000
19.37747002	-70.42622000
19.38343048	-71.07005000
19.38939095	-71.13972000
19.39535141	-70.91964000
19.40131187	-70.71605000
19.40727234	-70.64960000
19.41323280	-70.40119000
19.41919327	-72.11438000
19.42515373	-72.11472000
19.43111420	-71.37733000
19.43707466	-71.17726000
19.44303513	-71.85760000
19.44899559	-69.24765000
19.45495605	-68.54811000
19.46091652	-70.59144000
19.46687698	-71.11566000
19.47283745	-69.00685000
19.47879791	-68.16286000
19.48475838	-70.30283000
19.49071884	-70.17188000
19.49667931	-68.85509000
19.50263977	-68.92430000
19.50860023	-69.39618000
19.51456070	-68.70750000
19.52052116	-67.97469000
19.52648163	-66.33907000
19.53244209	-66.98277000
19.53840256	-67.72630000
19.54436302	-70.16025000
19.55032349	-70.31539000
19.55628395	-71.47520000
19.56224442	-71.67229000
19.56820488	-70.52260000
19.57416534	-70.73892000
19.58012581	-68.56652000
19.58608627	-69.84129000
19.59204674	-69.30054000
19.59800720	-70.28848000
19.60396767	-68.98581000
19.60992813	-70.34850000
19.61588860	-69.66171000
19.62184906	-68.56996000
19.62780952	-68.52551000
19.63376999	-66.15294000
19.63973045	-67.65635000
19.64569092	-66.94144000
19.65165138	-65.34471000
19.65761185	-66.06039000
19.66357231	-68.86870000
19.66953278	-70.06868000
19.67549324	-66.72131000
19.68145370	-66.45798000
19.68741417	-66.24553000
19.69337463	-67.98536000
19.69933510	-65.64066000
19.70529556	-66.65176000
19.71125603	-66.84789000
19.71721649	-67.05048000
19.72317696	-66.20937000
19.72913742	-67.92715000
19.73509789	-69.49954000
19.74105835	-68.64165000
19.74701881	-67.44983000
19.75297928	-67.76190000
19.75893974	-66.49951000
19.76490021	-68.68322000
19.77086067	-68.67632000
19.77682114	-68.25356000
19.78278160	-67.08808000
19.78874207	-67.57168000
19.79470253	-68.60287000
19.80066299	-67.61591000
19.80662346	-67.26424000
19.81258392	-65.15325000
19.81854439	-64.63911000
19.82450485	-65.48413000
19.83046532	-64.88652000
19.83642578	-63.54498000
19.84238625	-64.34477000
19.84834671	-65.81543000
19.85430717	-67.34610000
19.86026764	-67.83339000
19.86622810	-68.97134000
19.87218857	-69.93422000
19.87814903	-69.61594000
19.88410950	-69.05923000
19.89006996	-67.36195000
19.89603043	-67.24843000
19.90199089	-67.33947000
19.90795135	-64.26114000
19.91391182	-65.92101000
19.91987228	-64.82983000
19.92583275	-65.12710000
19.93179321	-63.64091000
19.93775368	-62.36172000
19.94371414	-62.66319000
19.94967461	-65.24361000
19.95563507	-63.47360000
19.96159554	-62.08295000
19.96755600	-64.12328000
19.97351646	-66.89645000
19.97947693	-66.00237000
19.98543739	-67.54960000
19.99139786	-65.69194000
19.99735832	-66.01645000
20.00331879	-66.21471000
20.00927925	-67.77206000
20.01523972	-68.37590000
20.02120018	-66.29326000
20.02716064	-67.44684000
20.03312111	-66.17426000
20.03908157	-63.38569000
20.04504204	-64.42014000
20.05100250	-65.37347000
20.05696297	-66.10065000
20.06292343	-65.30386000
20.06888390	-64.99683000
20.07484436	-63.68244000
20.08080482	-60.67078000
20.08676529	-60.59616000
20.09272575	-63.58170000
20.09868622	-68.26703000
20.10464668	-65.92281000
20.11060715	-64.32115000
20.11656761	-62.10507000
20.12252808	-62.72056000
20.12848854	-66.24753000
20.13444901	-66.45177000
20.14040947	-67.27492000
20.14636993	-67.74279000
20.15233040	-68.34480000
20.15829086	-66.30070000
20.16425133	-67.29958000
20.17021179	-68.20567000
20.17617226	-69.01374000
20.18213272	-68.71838000
20.18809319	-66.26373000
20.19405365	-68.40369000
20.20001411	-65.38301000
20.20597458	-65.09762000
20.21193504	-63.99383000
20.21789551	-62.12938000
20.22385597	-61.39014000
20.22981644	-61.21795000
20.23577690	-63.27633000
20.24173737	-65.01006000
20.24769783	-63.00674000
20.25365829	-64.50885000
20.25961876	-65.72250000
20.26557922	-66.53699000
20.27153969	-64.99735000
20.27750015	-61.78980000
20.28346062	-60.90271000
20.28942108	-61.93711000
20.29538155	-65.99443000
20.30134201	-67.81972000
20.30730247	-65.90408000
20.31326294	-63.99437000
20.31922340	-66.90028000
20.32518387	-70.75021000
20.33114433	-69.32542000
20.33710480	-69.97705000
20.34306526	-68.65358000
20.34902573	-69.75159000
20.35498619	-71.27435000
20.36094666	-70.72539000
20.36690712	-71.67661000
20.37286758	-71.56795000
20.37882805	-72.35921000
20.38478851	-70.45218000
20.39074898	-71.07014000
20.39670944	-70.97839000
20.40266991	-70.28790000
20.40863037	-70.61269000
20.41459084	-71.44209000
20.42055130	-72.25254000
20.42651176	-71.51311000
20.43247223	-71.36669000
20.43843269	-71.23157000
20.44439316	-70.51727000
20.45035362	-70.71693000
20.45631409	-71.92018000
20.46227455	-71.44109000
20.46823502	-71.37603000
20.47419548	-71.10255000
20.48015594	-71.00274000
20.48611641	-71.62959000
20.49207687	-72.15049000
20.49803734	-69.48470000
20.50399780	-69.98418000
20.50995827	-72.50231000
20.51591873	-70.77210000
20.52187920	-71.28190000
20.52783966	-71.65941000
20.53380013	-72.09631000
20.53976059	-72.37193000
20.54572105	-70.65997000
20.55168152	-72.17239000
20.55764198	-70.31628000
20.56360245	-70.43935000
20.56956291	-72.71170000
20.57552338	-71.55709000
20.58148384	-71.86996000
20.58744431	-70.52263000
20.59340477	-71.65516000
20.59936523	-70.89411000
20.60532570	-71.65858000
20.61128616	-71.38181000
20.61724663	-71.94106000
20.62320709	-71.88518000
20.62916756	-71.23080000
20.63512802	-71.14935000
20.64108849	-72.26737000
20.64704895	-72.70391000
20.65300941	-72.16899000
20.65896988	-71.50471000
20.66493034	-72.05249000
20.67089081	-72.19108000
20.67685127	-69.44157000
20.68281174	-70.70245000
20.68877220	-71.70160000
20.69473267	-70.54822000
20.70069313	-70.23904000
20.70665359	-71.01248000
20.71261406	-71.86629000
20.71857452	-71.35762000
20.72453499	-72.04096000
20.73049545	-71.04699000
20.73645592	-70.77328000
20.74241638	-70.65535000
20.74837685	-72.26756000
20.75433731	-70.64333000
20.76029778	-70.86472000
20.76625824	-71.45007000
20.77221870	-71.41720000
20.77817917	-71.29609000
20.78413963	-71.10473000
20.79010010	-70.79764000
20.79606056	-72.04906000
20.80202103	-72.19976000
20.80798149	-70.60538000
20.81394196	-70.39066000
20.81990242	-70.23284000
20.82586288	-72.08342000
20.83182335	-71.20421000
20.83778381	-71.53797000
20.84374428	-71.30086000
20.84970474	-71.74846000
20.85566521	-71.29796000
20.86162567	-72.36742000
20.86758614	-71.42561000
20.87354660	-71.27979000
20.87950706	-72.56892000
20.88546753	-71.81105000
20.89142799	-69.58812000
20.89738846	-70.65442000
20.90334892	-72.56680000
20.90930939	-71.50237000
20.91526985	-71.74028000
20.92123032	-70.73383000
20.92719078	-71.76743000
20.93315125	-72.30998000
20.93911171	-70.10800000
20.94507217	-68.99503000
20.95103264	-72.20653000
20.95699310	-71.60180000
20.96295357	-69.74313000
20.96891403	-71.36139000
20.97487450	-71.54765000
20.98083496	-70.94781000
20.98679543	-70.93410000
20.99275589	-71.70878000
20.99871635	-71.50980000
21.00467682	-72.78688000
21.01063728	-72.36674000
21.01659775	-71.82289000
21.02255821	-71.21250000
21.02851868	-71.69820000
21.03447914	-70.78321000
21.04043961	-69.99251000
21.04640007	-71.40942000
21.05236053	-71.31347000
21.05832100	-71.42342000
21.06428146	-70.24083000
21.07024193	-71.88116000
21.07620239	-72.48698000
21.08216286	-71.31393000
21.08812332	-70.48676000
21.09408379	-70.57370000
21.10004425	-71.38766000
21.10600471	-71.48005000
21.11196518	-72.00450000
21.11792564	-71.40062000
21.12388611	-71.64300000
21.12984657	-72.82813000
21.13580704	-71.83106000
21.14176750	-70.59074000
21.14772797	-71.96085000
21.15368843	-70.54977000
21.15964890	-70.48667000
21.16560936	-71.07588000
21.17156982	-70.49159000
21.17753029	-70.36315000
21.18349075	-71.97903000
21.18945122	-71.22530000
21.19541168	-72.00854000
21.20137215	-71.26947000
21.20733261	-71.00345000
21.21329308	-70.58938000
21.21925354	-69.80685000
21.22521400	-72.41975000
21.23117447	-71.37638000
21.23713493	-71.64922000
21.24309540	-71.69559000
21.24905586	-72.22968000
21.25501633	-72.88307000
21.26097679	-72.54237000
21.26693726	-72.02934000
21.27289772	-70.74399000
21.27885818	-70.71336000
21.28481865	-72.93398000
21.29077911	-69.96780000
21.29673958	-69.92946000
21.30270004	-71.24226000
21.30866051	-71.26419000
21.31462097	-70.31700000
21.32058144	-71.61688000
21.32654190	-70.44627000
21.33250237	-71.95632000
21.33846283	-72.39370000
21.34442329	-71.64457000
21.35038376	-71.13494000
21.35634422	-70.72919000
21.36230469	-70.41795000
21.36826515	-71.80489000
21.37422562	-70.83380000
21.38018608	-71.94344000
21.38614655	-70.40261000
21.39210701	-69.68877000
21.39806747	-72.44405000
21.40402794	-71.76593000
21.40998840	-71.23280000
21.41594887	-71.51289000
21.42190933	-68.96022000
21.42786980	-70.80905000
21.43383026	-71.92297000
21.43979073	-72.35718000
21.44575119	-72.14014000
21.45171165	-72.69566000
21.45767212	-71.38665000
21.46363258	-71.95265000
21.46959305	-71.46548000
21.47555351	-71.29674000
21.48151398	-71.66733000
21.48747444	-70.09695000
21.49343491	-70.71867000
21.49939537	-71.35339000
21.50535583	-70.36919000
21.51131630	-71.61787000
21.51727676	-70.67837000
21.52323723	-71.20807000
21.52919769	-71.20628000
21.53515816	-71.56010000
21.54111862	-72.19218000
21.54707909	-71.67840000
21.55303955	-71.72993000
21.55900002	-71.30340000
21.56496048	-72.03013000
21.57092094	-71.31053000
21.57688141	-69.02159000
21.58284187	-69.54552000
21.58880234	-71.10623000
21.59476280	-72.31603000
21.60072327	-71.16915000
21.60668373	-71.45082000
21.61264420	-70.95979000
21.61860466	-71.67308000
21.62456512	-71.27235000
21.63052559	-70.98977000
21.63648605	-70.71339000
21.64244652	-70.51406000
21.64840698	-71.07661000
21.65436745	-71.26324000
21.66032791	-70.88486000
21.66628838	-71.98222000
21.67224884	-71.66497000
21.67820930	-71.67281000
21.68416977	-71.63855000
21.69013023	-70.82015000
21.69609070	-71.58241000
21.70205116	-71.96552000
21.70801163	-69.92941000
21.71397209	-68.99337000
21.71993256	-70.92496000
21.72589302	-71.48533000
21.73185349	-71.37961000
21.73781395	-70.75029000
21.74377441	-70.24432000
21.74973488	-70.56342000
21.75569534	-70.62439000
21.76165581	-71.17229000
21.76761627	-72.04755000
21.77357674	-69.30369000
21.77953720	-71.17628000
21.78549767	-70.97507000
21.79145813	-69.35029000
21.79741859	-71.37038000
21.80337906	-72.16096000
21.80933952	-71.65458000
21.81529999	-72.17233000
21.82126045	-70.90714000
21.82722092	-70.98620000
21.83318138	-70.22866000
21.83914185	-71.18114000
21.84510231	-70.64332000
21.85106277	-69.89702000
21.85702324	-70.17738000
21.86298370	-71.35116000
21.86894417	-71.90476000
21.87490463	-71.47804000
21.88086510	-70.58589000
21.88682556	-71.18242000
21.89278603	-71.82385000
21.89874649	-72.22762000
21.90470695	-71.10664000
21.91066742	-71.40656000
21.91662788	-72.05966000
21.92258835	-71.83292000
21.92854881	-70.88150000
21.93450928	-71.90425000
21.94046974	-72.15605000
21.94643021	-70.37343000
21.95239067	-71.07181000
21.95835114	-71.48840000
21.96431160	-72.70020000
21.97027206	-71.06053000
21.97623253	-71.85105000
21.98219299	-70.84013000
21.98815346	-70.58884000
21.99411392	-70.83718000
22.00007439	-71.23783000
22.00603485	-70.55116000
22.01199532	-72.23228000
22.01795578	-71.85760000
22.02391624	-71.41188000
22.02987671	-72.01031000
22.03583717	-71.73470000
22.04179764	-70.43924000
22.04775810	-70.08848000
22.05371857	-71.44820000
22.05967903	-71.19119000
22.06563950	-71.56833000
22.07159996	-70.74613000
22.07756042	-72.33852000
22.08352089	-71.08169000
22.08948135	-70.77598000
22.09544182	-71.70509000
22.10140228	-72.01033000
22.10736275	-71.71490000
22.11332321	-69.89030000
22.11928368	-71.43107000
22.12524414	-71.44647000
22.13120461	-71.37141000
22.13716507	-71.04649000
22.14312553	-70.39537000
22.14908600	-71.32382000
22.15504646	-71.51807000
22.16100693	-71.88531000
22.16696739	-72.23576000
22.17292786	-72.13853000
22.17888832	-71.75350000
22.18484879	-71.12850000
22.19080925	-71.95617000
22.19676971	-71.20451000
22.20273018	-71.82622000
22.20869064	-72.07059000
22.21465111	-71.33388000
22.22061157	-70.48709000
22.22657204	-71.48133000
22.23253250	-71.69975000
22.23849297	-71.38200000
22.24445343	-71.26425000
22.25041389	-71.51767000
22.25637436	-71.29778000
22.26233482	-68.54446000
22.26829529	-68.26690000
22.27425575	-70.79223000
22.28021622	-71.74756000
22.28617668	-71.35827000
22.29213715	-71.75199000
22.29809761	-71.60683000
22.30405807	-71.30875000
22.31001854	-71.27097000
22.31597900	-71.60553000
22.32193947	-70.55256000
22.32789993	-71.35567000
22.33386040	-71.99886000
22.33982086	-70.91992000
22.34578133	-69.93522000
22.35174179	-70.08435000
22.35770226	-71.22637000
22.36366272	-71.75844000
22.36962318	-72.33424000
22.37558365	-70.81828000
22.38154411	-70.34276000
22.38750458	-70.23421000
22.39346504	-72.29749000
22.39942551	-70.45477000
22.40538597	-72.21402000
22.41134644	-71.99712000
22.41730690	-72.27846000
22.42326736	-71.88948000
22.42922783	-72.79144000
22.43518829	-72.79956000
22.44114876	-70.48230000
22.44710922	-71.37356000
22.45306969	-71.68523000
22.45903015	-71.51794000
22.46499062	-71.81763000
22.47095108	-72.55185000
22.47691154	-72.21943000
22.48287201	-72.88863000
22.48883247	-71.34408000
22.49479294	-71.24384000
22.50075340	-72.08256000
22.50671387	-72.44403000
22.51267433	-71.76264000
22.51863480	-71.75572000
22.52459526	-72.65258000
22.53055573	-72.15716000
22.53651619	-71.69765000
22.54247665	-71.43058000
22.54843712	-72.30927000
22.55439758	-71.12895000
22.56035805	-72.09729000
22.56631851	-70.81139000
22.57227898	-70.38667000
22.57823944	-72.18514000
22.58419991	-72.93042000
22.59016037	-72.79772000
22.59612083	-72.82275000
22.60208130	-71.27683000
22.60804176	-70.86315000
22.61400223	-71.35141000
22.61996269	-71.39812000
22.62592316	-72.52946000
22.63188362	-71.80667000
22.63784409	-71.49319000
22.64380455	-71.77583000
22.64976501	-71.58546000
22.65572548	-71.45004000
22.66168594	-70.60683000
22.66764641	-71.68416000
22.67360687	-71.36182000
22.67956734	-71.31587000
22.68552780	-69.96019000
22.69148827	-71.55467000
22.69744873	-71.85516000
22.70340919	-71.14442000
22.70936966	-69.03575000
22.71533012	-69.20003000
22.72129059	-72.15768000
22.72725105	-71.09149000
22.73321152	-71.76328000
22.73917198	-72.44715000
22.74513245	-71.15221000
22.75109291	-73.14131000
22.75705338	-71.28676000
22.76301384	-71.77713000
22.76897430	-70.30030000
22.77493477	-70.26472000
22.78089523	-70.68592000
22.78685570	-71.38253000
22.79281616	-72.61115000
22.79877663	-72.33209000
22.80473709	-72.37198000
22.81069756	-71.25465000
22.81665802	-72.52821000
22.82261848	-72.49590000
22.82857895	-71.59995000
22.83453941	-72.37658000
22.84049988	-72.37127000
22.84646034	-71.72800000
22.85242081	-71.68561000
22.85838127	-72.48351000
22.86434174	-72.13522000
22.87030220	-71.28288000
22.87626266	-70.33187000
22.88222313	-70.55320000
22.88818359	-72.48937000
22.89414406	-71.48972000
22.90010452	-70.28413000
22.90606499	-70.47449000
22.91202545	-71.16563000
22.91798592	-70.69063000
22.92394638	-71.73579000
22.92990685	-71.68632000
22.93586731	-71.89960000
22.94182777	-70.85554000
22.94778824	-70.91208000
22.95374870	-70.68234000
22.95970917	-71.47334000
22.96566963	-71.37363000
22.97163010	-72.43860000
22.97759056	-72.41128000
22.98355103	-71.49242000
22.98951149	-71.85487000
22.99547195	-71.05159000
23.00143242	-71.45815000
23.00739288	-71.86128000
23.01335335	-71.33016000
23.01931381	-71.14511000
23.02527428	-72.05256000
23.03123474	-71.93388000
23.03719521	-71.85051000
23.04315567	-71.36955000
23.04911613	-71.65675000
23.05507660	-70.43130000
23.06103706	-70.61166000
23.06699753	-71.41040000
23.07295799	-71.11298000
23.07891846	-70.65185000
23.08487892	-71.19807000
23.09083939	-68.61020000
23.09679985	-69.50977000
23.10276031	-70.61139000
23.10872078	-70.72144000
23.11468124	-70.90424000
23.12064171	-71.10643000
23.12660217	-71.13007000
23.13256264	-71.28792000
23.13852310	-70.30824000
23.14448357	-71.50250000
23.15044403	-72.26557000
23.15640450	-71.53688000
23.16236496	-71.99806000
23.16832542	-71.50909000
23.17428589	-70.78010000
23.18024635	-70.69257000
23.18620682	-70.06913000
23.19216728	-71.70240000
23.19812775	-71.76733000
23.20408821	-72.03431000
23.21004868	-71.71243000
23.21600914	-71.88734000
23.22196960	-71.91769000
23.22793007	-71.55461000
23.23389053	-69.99445000
23.23985100	-70.28755000
23.24581146	-70.18668000
23.25177193	-71.51669000
23.25773239	-70.03778000
23.26369286	-68.74698000
23.26965332	-69.99141000
23.27561378	-71.21420000
23.28157425	-70.16032000
23.28753471	-68.67409000
23.29349518	-70.67456000
23.29945564	-71.89936000
23.30541611	-71.85733000
23.31137657	-70.97717000
23.31733704	-71.66221000
23.32329750	-72.17532000
23.32925797	-70.39424000
23.33521843	-71.00931000
23.34117889	-70.44450000
23.34713936	-70.60307000
23.35309982	-70.94201000
23.35906029	-72.27143000
23.36502075	-72.36810000
23.37098122	-71.36437000
23.37694168	-71.20248000
23.38290215	-71.46239000
23.38886261	-72.17723000
23.39482307	-70.82413000
23.40078354	-70.15849000
23.40674400	-71.46353000
23.41270447	-70.99754000
23.41866493	-70.57067000
23.42462540	-70.37833000
23.43058586	-70.75083000
23.43654633	-70.50248000
23.44250679	-70.91152000
23.44846725	-71.35117000
23.45442772	-71.23172000
23.46038818	-71.55545000
23.46634865	-71.26167000
23.47230911	-70.82486000
23.47826958	-70.63674000
23.48423004	-70.90360000
23.49019051	-72.17226000
23.49615097	-70.79807000
23.50211143	-70.89938000
23.50807190	-71.07982000
23.51403236	-70.13364000
23.51999283	-70.39644000
23.52595329	-70.41917000
23.53191376	-71.00389000
23.53787422	-70.63896000
23.54383469	-71.62872000
23.54979515	-71.32296000
23.55575562	-72.05415000
23.56171608	-70.20613000
23.56767654	-71.52151000
23.57363701	-71.02500000
23.57959747	-71.22085000
23.58555794	-71.17059000
23.59151840	-72.02733000
23.59747887	-71.81197000
23.60343933	-71.43971000
23.60939980	-71.59227000
23.61536026	-72.55001000
23.62132072	-71.21555000
23.62728119	-72.18055000
23.63324165	-71.93000000
23.63920212	-71.76310000
23.64516258	-70.64315000
23.65112305	-72.19421000
23.65708351	-71.89082000
23.66304398	-71.39100000
23.66900444	-69.77405000
23.67496490	-70.91190000
23.68092537	-71.65281000
23.68688583	-69.50366000
23.69284630	-70.46049000
23.69880676	-70.58791000
23.70476723	-71.91876000
23.71072769	-70.31847000
23.71668816	-70.79891000
23.72264862	-71.06288000
23.72860909	-72.31646000
23.73456955	-72.47508000
23.74053001	-71.93716000
23.74649048	-71.33770000
23.75245094	-71.92371000
23.75841141	-71.67068000
23.76437187	-72.59040000
23.77033234	-72.16138000
23.77629280	-70.41014000
23.78225327	-70.92586000
23.78821373	-71.18613000
23.79417419	-71.81146000
23.80013466	-71.93216000
23.80609512	-71.88875000
23.81205559	-71.76913000
23.81801605	-71.00763000
23.82397652	-70.33235000
23.82993698	-70.94680000
23.83589745	-71.03475000
23.84185791	-71.69875000
23.84781837	-71.24625000
23.85377884	-71.00443000
23.85973930	-71.58971000
23.86569977	-71.58769000
23.87166023	-71.36743000
23.87762070	-71.48869000
23.88358116	-71.69684000
23.88954163	-71.91375000
23.89550209	-70.22583000
23.90146255	-70.43753000
23.90742302	-72.26244000
23.91338348	-70.76389000
23.91934395	-71.13992000
23.92530441	-71.20969000
23.93126488	-72.36469000
23.93722534	-71.48630000
23.94318581	-71.94025000
23.94914627	-71.99494000
23.95510674	-72.74107000
23.96106720	-71.75864000
23.96702766	-72.24597000
23.97298813	-72.29488000
23.97894859	-71.22736000
23.98490906	-71.41101000
23.99086952	-70.82652000
23.99682999	-72.20776000
24.00279045	-72.73665000
24.00875092	-71.24803000
24.01471138	-70.82694000
24.02067184	-73.11862000
24.02663231	-72.21639000
24.03259277	-72.22102000
24.03855324	-72.12211000
24.04451370	-71.04461000
24.05047417	-71.38259000
24.05643463	-71.86038000
24.06239510	-72.24788000
24.06835556	-70.67827000
24.07431602	-70.72924000
24.08027649	-71.43228000
24.08623695	-70.80832000
24.09219742	-72.12584000
24.09815788	-71.87518000
24.10411835	-70.69146000
24.11007881	-71.87173000
24.11603928	-70.38074000
24.12199974	-70.64362000
24.12796021	-71.61989000
24.13392067	-71.94582000
24.13988113	-71.37389000
24.14584160	-70.00229000
24.15180206	-71.69608000
24.15776253	-70.69197000
24.16372299	-71.27723000
24.16968346	-71.53921000
24.17564392	-72.30413000
24.18160439	-70.85919000
24.18756485	-70.81083000
24.19352531	-70.42495000
24.19948578	-72.32727000
24.20544624	-70.68287000
24.21140671	-71.50883000
24.21736717	-71.03579000
24.22332764	-70.99029000
24.22928810	-70.73312000
24.23524857	-71.49512000
24.24120903	-70.74352000
24.24716949	-69.10896000
24.25312996	-71.01807000
24.25909042	-70.74980000
24.26505089	-70.42589000
24.27101135	-71.36123000
24.27697182	-70.67595000
24.28293228	-69.96738000
24.28889275	-71.09848000
24.29485321	-72.89410000
24.30081367	-72.84517000
24.30677414	-72.34964000
24.31273460	-72.28913000
24.31869507	-71.90444000
24.32465553	-71.12697000
24.33061600	-71.23383000
24.33657646	-70.28799000
24.34253693	-71.10931000
24.34849739	-70.84302000
24.35445786	-70.62431000
24.36041832	-71.23758000
24.36637878	-71.60947000
24.37233925	-72.60944000
24.37829971	-71.96739000
24.38426018	-72.04418000
24.39022064	-72.07578000
24.39618111	-72.43773000
24.40214157	-72.77002000
24.40810204	-71.60120000
